Wavenumber,Intensity
-16.778,-0.33
-12.919,-0.67
-9.063,1.33
-5.209,-1.33
-1.359,40.67
2.488,36.33
6.332,31.33
10.173,35.67
14.012,34
17.847,32.67
21.679,34.67
25.508,40.67
29.335,39.33
33.158,40
36.979,41.67
40.796,42.67
44.611,41.33
48.423,42.67
52.231,44.67
56.037,49.33
59.84,49
63.64,56
67.437,58.33
71.231,63.67
75.022,63.67
78.81,69
82.596,74.33
86.378,81
90.158,86.33
93.934,90.33
97.708,98
101.479,102.67
105.247,118.33
109.012,131.33
112.774,145.33
116.533,172.33
120.289,200.33
124.043,264.67
127.793,368
131.541,600
135.286,1043.33
139.028,1834.33
142.767,3079.33
146.503,4828
150.237,6966.67
153.967,9245.67
157.695,11243
161.42,12766.33
165.142,13593.33
168.861,14024.33
172.577,14245
176.291,14336.33
180.002,14429
183.709,14510.33
187.414,14631
191.117,14787
194.816,14931.33
198.512,15020.67
202.206,15182.33
205.897,15372.33
209.585,15520.33
213.27,15711.67
216.953,15971.67
220.633,16157.33
224.309,16125.33
227.984,16022
231.655,15834
235.323,15733.67
238.989,15643.67
242.652,15705
246.312,15754.67
249.97,15728
253.624,15655.67
257.276,15674.33
260.925,15618.33
264.571,15628.33
268.215,15630.33
271.856,15566
275.494,15559
279.129,15478.67
282.762,15390.67
286.391,15320.33
290.018,15350.67
293.643,15369
297.264,15306
300.883,15423.67
304.499,15442.33
308.112,15452
311.723,15429.33
315.331,15339.67
318.936,15320.67
322.538,15310.33
326.138,15290
329.735,15346.33
333.33,15408
336.921,15422.33
340.51,15434
344.096,15572.67
347.68,15660.33
351.261,15780.33
354.839,15935.67
358.414,15920.67
361.987,15781.33
365.557,15673.67
369.124,15602.67
372.689,15574.33
376.251,15489.67
379.81,15510.67
383.367,15519.67
386.921,15444
390.472,15521
394.021,15464.67
397.567,15550.33
401.11,15608.33
404.651,15784.67
408.189,15885
411.724,15950
415.257,16061
418.787,16102.67
422.315,16143.33
425.839,16011
429.362,15946
432.881,15938
436.398,15814.67
439.912,15712.33
443.424,15646
446.933,15662.33
450.439,15619.33
453.943,15676.67
457.444,15759.33
460.943,15705.33
464.439,15644.33
467.932,15620.33
471.423,15585.33
474.911,15514.67
478.397,15468.33
481.88,15478
485.36,15447.33
488.838,15405
492.313,15314
495.786,15311.67
499.256,15244
502.723,15207
506.188,15240.67
509.651,15167
513.11,15121.33
516.567,15100.67
520.022,15074
523.474,15077.33
526.924,15002.67
530.37,15035.33
533.815,14991.33
537.257,15001
540.696,15039
544.133,14963.67
547.567,14992
550.998,14999.33
554.428,14995.33
557.854,15017.67
561.278,15017
564.7,14991
568.119,14967.33
571.535,14933.67
574.949,14962
578.36,14921
581.769,14851
585.175,14873
588.579,14793
591.981,14735.33
595.379,14648.33
598.776,14662.33
602.17,14565.33
605.561,14609.67
608.95,14467.67
612.336,14464
615.72,14408.67
619.101,14368.33
622.48,14447
625.856,14458
629.23,14441.67
632.602,14354.33
635.971,14272.67
639.337,14216.33
642.701,14106.33
646.062,14111
649.421,14200.67
652.778,14218.33
656.132,14200.33
659.484,14192.33
662.833,14149.67
666.18,14027.33
669.524,13935.67
672.866,13878.67
676.205,13844.67
679.542,13768
682.877,13742.33
686.209,13764
689.538,13688
692.865,13700.33
696.19,13599.33
699.512,13631.67
702.832,13609.67
706.15,13601
709.465,13564.33
712.777,13488.33
716.087,13462.67
719.395,13389
722.701,13393
726.004,13408.33
729.304,13332.33
732.602,13364.33
735.898,13339.67
739.191,13299.33
742.482,13306.33
745.771,13209.67
749.057,13220.33
752.341,13245
755.622,13271.67
758.901,13260.33
762.177,13324.33
765.452,13318
768.723,13345
771.993,13232.67
775.26,13031.33
778.525,12962.33
781.787,12884.67
785.047,12836.33
788.304,12810
791.56,12809.67
794.812,12793
798.063,12766.67
801.311,12617
804.557,12554.33
807.8,12432
811.041,12355
814.28,12315.33
817.516,12276.67
820.751,12150.33
823.982,12137
827.212,12054
830.439,12033.67
833.663,12092.33
836.886,12130.67
840.106,12251
843.323,12163.33
846.539,12036.67
849.752,11993.67
852.963,11969
856.171,12040
859.377,12163.67
862.581,12026
865.782,11926.67
868.982,11863.67
872.179,11782
875.373,11663
878.565,11585
881.755,11529.67
884.943,11471.33
888.128,11465
891.311,11418.67
894.492,11395.33
897.671,11403
900.847,11405.33
904.021,11379
907.193,11240.67
910.362,11204.67
913.529,11099.33
916.694,11053.67
919.856,10974.33
923.017,10971
926.175,10956.67
929.331,10941.67
932.484,10881.33
935.635,10880.33
938.784,10877.33
941.931,10865.67
945.075,10944.67
948.218,10955
951.358,10936.33
954.495,10960
957.631,10898.33
960.764,10830.67
963.895,10784.67
967.024,10769
970.15,10876.33
973.274,11027.67
976.397,11096.33
979.516,11218
982.634,11408
985.749,11983.67
988.862,12697.33
991.973,12906
995.082,12913.33
998.188,13527
1001.293,14030
1004.395,13154.33
1007.495,11716
1010.592,10864.33
1013.688,10549.33
1016.781,10438.33
1019.872,10352.67
1022.961,10363.67
1026.047,10280
1029.132,10163.67
1032.214,10031
1035.294,9997.67
1038.372,9998.33
1041.448,9969
1044.521,9955.33
1047.592,10000.67
1050.661,10015.67
1053.728,9975
1056.793,9870.67
1059.856,9952.33
1062.916,10051.33
1065.974,10124.33
1069.03,10025.33
1072.084,9749.67
1075.136,9581.67
1078.186,9427.33
1081.233,9377.67
1084.278,9322.67
1087.321,9360
1090.362,9370.67
1093.401,9350
1096.438,9364.67
1099.472,9444
1102.505,9509.33
1105.535,9586.33
1108.563,9664.33
1111.589,9639.33
1114.613,9481.67
1117.634,9269
1120.654,9094
1123.671,9041.67
1126.687,8992
1129.7,8949.67
1132.711,8941.67
1135.72,8984.33
1138.726,9058.67
1141.731,9244
1144.734,9206.67
1147.734,9139.33
1150.732,8991.33
1153.728,8924.33
1156.723,8915.33
1159.715,8900
1162.704,8844.33
1165.692,8800
1168.678,8677.33
1171.661,8597.67
1174.643,8484
1177.622,8410.67
1180.6,8436.33
1183.575,8480.33
1186.548,8469
1189.519,8539
1192.488,8581.33
1195.455,8566.33
1198.42,8492.33
1201.382,8384
1204.343,8368.67
1207.301,8412.67
1210.258,8331
1213.212,8347.67
1216.165,8374.33
1219.115,8494.33
1222.063,8658.67
1225.009,8767.67
1227.953,8824.33
1230.895,8763.33
1233.835,8614
1236.773,8470.33
1239.709,8370.33
1242.643,8362.33
1245.575,8404
1248.504,8436
1251.432,8566
1254.358,8607.33
1257.281,8705.33
1260.203,8678.33
1263.122,8568
1266.04,8381.67
1268.955,8213
1271.869,8113.67
1274.78,8071
1277.689,8059.67
1280.597,8071.67
1283.502,8138
1286.405,8200.67
1289.306,8272.67
1292.206,8366.33
1295.103,8384.33
1297.998,8395
1300.891,8429.33
1303.782,8531
1306.672,8615.33
1309.559,8610.33
1312.444,8586.67
1315.327,8576.33
1318.208,8538
1321.087,8603.67
1323.965,8633
1326.84,8638
1329.713,8545.67
1332.584,8450.67
1335.453,8443
1338.32,8620.67
1341.186,9079.33
1344.049,9633.67
1346.91,10104.67
1349.769,10349.67
1352.627,10262.33
1355.482,10032
1358.335,9974.33
1361.187,10180
1364.036,10282
1366.883,10183.33
1369.729,9819
1372.572,9482.67
1375.414,9436
1378.253,9469
1381.091,9433.67
1383.926,9376.67
1386.76,9473.67
1389.592,9857
1392.422,10456
1395.249,11056
1398.075,11352
1400.899,11257.33
1403.721,10817
1406.541,10202.33
1409.359,9758.33
1412.175,9634
1414.99,9826.33
1417.802,10126.67
1420.612,10376.67
1423.421,10617.67
1426.227,10762.67
1429.032,10567.33
1431.834,10174.33
1434.635,9924
1437.434,9805.67
1440.23,9760.67
1443.025,9770
1445.818,10130.67
1448.609,10502.33
1451.398,10438.33
1454.186,9735
1456.971,8992
1459.754,8463.67
1462.536,8225.67
1465.315,8000
1468.093,7860
1470.869,7871
1473.643,7837
1476.415,7921.33
1479.185,8042.33
1481.953,8120.33
1484.719,8233.67
1487.484,8168.33
1490.246,8101
1493.007,7959.33
1495.766,7921.33
1498.522,8059.33
1501.277,8331
1504.031,8588.67
1506.782,8715.67
1509.531,8742.33
1512.278,8745.67
1515.024,8911.67
1517.768,9298
1520.51,9462.33
1523.249,9284.67
1525.988,8971
1528.724,8765.67
1531.458,8825.67
1534.191,8787.33
1536.921,8413.67
1539.65,8054.67
1542.377,7687.67
1545.102,7523.33
1547.825,7393.33
1550.546,7355.33
1553.266,7304.67
1555.984,7305.33
1558.699,7287.33
1561.413,7286
1564.125,7353
1566.836,7460.33
1569.544,7637
1572.251,7798.67
1574.955,7938
1577.658,8007
1580.359,8190.67
1583.058,8647.67
1585.756,9235
1588.451,9631
1591.145,9518.67
1593.837,9279.33
1596.527,9351
1599.215,9833
1601.902,10488.33
1604.586,11226.33
1607.269,12100.67
1609.95,13556
1612.629,14876
1615.307,14447
1617.982,12200.67
1620.656,10028.33
1623.328,8651.33
1625.998,7909.67
1628.666,7487.33
1631.333,7247.67
1633.997,7098.33
1636.66,7008
1639.321,6921
1641.981,6815.67
1644.638,6805
1647.294,6739.33
1649.948,6682.33
1652.6,6634
1655.25,6630.33
1657.899,6573.33
1660.545,6560.33
1663.19,6525.67
1665.834,6498.33
1668.475,6484.67
1671.115,6433.33
1673.752,6423.33
1676.389,6418.33
1679.023,6370.33
1681.655,6381.67
1684.286,6314.33
1686.915,6349.67
1689.542,6336.67
1692.168,6326.33
1694.791,6300.67
1697.413,6312
1700.033,6320.67
1702.652,6321.67
1705.269,6431
1707.883,6519.33
1710.497,6645.33
1713.108,6793.33
1715.717,7123.33
1718.325,7345
1720.931,7344.33
1723.536,7146.67
1726.138,6884
1728.739,6679.33
1731.338,6440.33
1733.936,6339
1736.531,6240
1739.125,6178.67
1741.718,6130
1744.308,6057
1746.897,6010.33
1749.484,5977.33
1752.069,5925
1754.652,5916.67
1757.234,5894.67
1759.814,5834.33
1762.392,5839
1764.969,5816
1767.544,5784.67
1770.117,5769.33
1772.689,5744.33
1775.258,5742
1777.826,5732
1780.393,5726
1782.957,5709.67
1785.52,5663
1788.081,5647
1790.641,5649
1793.198,5645.67
1795.754,5621.33
1798.309,5616.33
1800.861,5603
1803.412,5621.33
1805.961,5574.33
1808.509,5592.33
1811.055,5585.67
1813.599,5520
1816.141,5512.67
1818.682,5520
1821.221,5516.67
1823.759,5486.33
1826.294,5482.33
1828.828,5440.33
1831.361,5485.33
1833.891,5399
1836.42,5370.67
1838.947,5379
1841.473,5344.33
1843.997,5329.33
1846.519,5320
1849.04,5274
1851.559,5239.33
1854.076,5243.33
1856.591,5171
1859.105,5136.67
1861.617,5140.67
1864.128,5122.67
1866.637,5112.67
1869.144,5083
1871.65,5124.67
1874.154,5091.67
1876.656,5074.33
1879.156,5074.67
1881.655,5049.67
1884.153,4985.33
1886.648,4980
1889.142,5003
1891.635,4969
1894.125,4988.33
1896.614,4957.33
1899.102,4946.67
1901.587,4944
1904.071,4913.33
1906.554,4861
1909.035,4869.67
1911.514,4856
1913.991,4815.33
1916.467,4839
1918.942,4781.33
1921.414,4758
1923.885,4748
1926.355,4697.33
1928.822,4707.67
1931.289,4687.33
1933.753,4637.67
1936.216,4607.67
1938.677,4595.67
1941.137,4620
1943.595,4542.33
1946.051,4549.67
1948.506,4510.33
1950.959,4486.33
1953.411,4501
1955.861,4490.67
1958.309,4450.67
1960.756,4447.33
1963.201,4415.67
1965.644,4405.67
1968.086,4391.67
1970.526,4387
1972.965,4369.67
1975.402,4372.33
1977.838,4339.33
1980.272,4332.67
1982.704,4310.33
1985.135,4320.33
1987.564,4257.67
1989.991,4267
1992.417,4272.33
1994.841,4230.67
1997.264,4220.67
1999.685,4209.67
2002.105,4177.67
2004.523,4174.67
2006.939,4138.67
2009.354,4099.67
2011.767,4091.33
2014.179,4063.67
2016.589,4049.33
2018.997,4013
2021.404,3986
2023.81,3955.67
2026.213,3960.67
2028.616,3964.33
2031.016,3925.33
2033.415,3928
2035.813,3911.33
2038.209,3904.33
2040.603,3936.33
2042.996,3885
2045.387,3867.67
2047.777,3847.67
2050.165,3842.67
2052.551,3862.33
2054.936,3824.67
2057.32,3835
2059.702,3769.33
2062.082,3811
2064.461,3774.67
2066.838,3751.67
2069.214,3762
2071.588,3720.67
2073.96,3718.33
2076.331,3721.33
2078.701,3691.33
2081.069,3688
2083.435,3655
2085.8,3619.33
2088.163,3588.67
2090.525,3581
2092.886,3576.67
2095.244,3567.33
2097.601,3546
2099.957,3491.67
2102.311,3498.33
2104.664,3489.67
2107.015,3474.33
2109.364,3460.67
2111.712,3413
2114.059,3400.33
2116.404,3371
2118.747,3392
2121.089,3373.33
2123.43,3346
2125.769,3312.67
2128.106,3336.67
2130.442,3300
2132.776,3295.67
2135.109,3280
2137.44,3283.67
2139.77,3250.67
2142.098,3252
2144.425,3245
2146.75,3216
2149.074,3193
2151.397,3165
2153.717,3169.33
2156.037,3165.67
2158.354,3140.67
2160.671,3132.33
2162.985,3123.67
2165.299,3106.33
2167.61,3089
2169.921,3038.67
2172.23,3056.33
2174.537,3041
2176.843,3015.33
2179.147,2995.33
2181.45,2962.33
2183.751,2981
2186.051,2938.67
2188.349,2916.33
2190.646,2925.33
2192.942,2900
2195.236,2861.33
2197.528,2854.33
2199.819,2852.33
2202.109,2828.33
2204.397,2854.67
2206.683,2812
2208.968,2810.33
2211.252,2806
2213.534,2795.33
2215.815,2780
2218.094,2754.67
2220.372,2762.33
2222.648,2773.67
2224.923,2750.33
2227.196,2730.67
2229.468,2695
2231.738,2697.33
2234.007,2671.67
2236.275,2663.33
2238.541,2640.67
2240.806,2654.67
2243.069,2641
2245.33,2608.67
2247.591,2621
2249.849,2599.67
2252.107,2592
2254.363,2580.67
2256.617,2569.33
2258.87,2555.33
2261.122,2562
2263.372,2520.33
2265.62,2502.67
2267.868,2494.33
2270.113,2477.67
2272.358,2481
2274.601,2461.33
2276.842,2450.67
2279.082,2423.33
2281.321,2435.33
2283.558,2387.67
2285.794,2400.67
2288.028,2390
2290.261,2379.67
2292.492,2373
2294.722,2358.33
2296.951,2362
2299.178,2341.67
2301.404,2338
2303.628,2322.33
2305.851,2323
2308.072,2306
2310.292,2313.33
2312.511,2302
2314.728,2295
2316.944,2278.67
2319.159,2300.67
2321.372,2283.33
2323.583,2264.33
2325.793,2253.33
2328.002,2265.33
2330.209,2260.33
2332.415,2234.33
2334.62,2224
2336.823,2207.67
2339.025,2189.67
2341.225,2184.67
2343.424,2147
2345.621,2156.33
2347.817,2121.67
2350.012,2113.67
2352.206,2056
2354.397,2083.33
2356.588,2065.67
2358.777,2038.33
2360.965,2053
2363.151,2011.33
2365.336,2015
2367.52,1998.67
2369.702,1967.67
2371.883,1975.33
2374.062,1977.33
2376.24,1979.33
2378.417,1979.33
2380.592,1967.67
2382.766,1917.33
2384.938,1912.33
2387.11,1901
2389.279,1909.67
2391.448,1902
2393.615,1874
2395.78,1864.33
2397.944,1879.33
2400.107,1851
2402.269,1860.67
2404.429,1835
2406.588,1821.67
2408.745,1821.67
2410.901,1801.67
2413.056,1811
2415.209,1792.33
2417.361,1772.67
2419.512,1777.33
2421.661,1777
2423.809,1755
2425.955,1729
2428.1,1731.33
2430.244,1721.67
2432.386,1720.67
2434.527,1707.67
2436.667,1686.67
2438.806,1683.67
2440.943,1673.67
2443.078,1667.33
2445.213,1658.33
2447.345,1647.33
2449.477,1629
2451.607,1636
2453.736,1613.67
2455.864,1622
2457.99,1610.33
2460.115,1589
2462.239,1607.67
2464.361,1575.33
2466.482,1581.33
2468.601,1572.67
2470.719,1565.33
2472.836,1548
2474.952,1531.67
2477.066,1552.33
2479.179,1541.33
2481.29,1502.67
2483.401,1516.33
2485.509,1521
2487.617,1496
2489.723,1496
2491.828,1486
2493.932,1478
2496.034,1461.67
2498.135,1460.33
2500.234,1444
2502.333,1447
2504.43,1423.67
2506.525,1437.67
2508.62,1435.33
2510.713,1404.33
2512.804,1392
2514.895,1391.67
2516.984,1406.67
2519.071,1388.67
2521.158,1369.67
2523.243,1355
2525.327,1353.33
2527.409,1366.67
2529.491,1338.33
2531.571,1331.67
2533.649,1334.33
2535.726,1326.67
2537.802,1317
2539.877,1310
2541.951,1309
2544.023,1283
2546.093,1299
2548.163,1285.67
2550.231,1284.67
2552.298,1274.67
2554.364,1270
2556.428,1266
2558.491,1248
2560.553,1242
2562.613,1242.33
2564.672,1233.33
2566.73,1243.33
2568.787,1230
2570.842,1231.67
2572.896,1233.67
2574.949,1226.33
2577,1199.33
2579.05,1194
2581.099,1193.33
2583.147,1193.33
2585.193,1188
2587.238,1164.33
2589.282,1155.67
2591.324,1156
2593.366,1167.33
2595.406,1159
2597.444,1138
2599.482,1122
2601.518,1129.33
2603.553,1135.67
2605.586,1121.67
2607.618,1109.67
2609.65,1106
2611.679,1103
2613.708,1097.67
2615.735,1098
2617.761,1104
2619.786,1086
2621.809,1064.33
2623.831,1073.33
2625.852,1057.67
2627.872,1062
2629.89,1052.67
2631.908,1069
2633.924,1056.33
2635.938,1041.33
2637.952,1057
2639.964,1042.67
2641.975,1028.67
2643.984,1015.67
2645.993,1019.33
2648,1014.33
2650.006,1024.67
2652.01,1012
2654.014,987
2656.016,991.33
2658.017,991.67
2660.017,999.33
2662.015,982.33
2664.012,963.67
2666.008,956
2668.003,954.67
2669.996,957.33
2671.989,953.67
2673.98,938.33
2675.97,934.33
2677.958,929.33
2679.945,912.67
2681.931,915
2683.916,910.67
2685.9,906.67
2687.882,907
2689.863,899
2691.843,908.33
2693.822,899
2695.8,888.67
2697.776,888.33
2699.751,884.67
2701.725,877.33
2703.697,862.33
2705.669,865
2707.639,868.33
2709.608,859.67
2711.575,838.67
2713.542,835.67
2715.507,844
2717.471,825
2719.434,828.67
2721.396,798.67
2723.356,801
2725.315,792
2727.273,795.33
2729.23,798.33
2731.186,793.67
2733.14,780.67
2735.093,773.67
2737.045,774
2738.996,770
2740.946,760
2742.894,762.67
2744.841,758.67
2746.787,766
2748.732,745.67
2750.675,740.67
2752.618,728
2754.559,726.33
2756.499,712.67
2758.438,726.33
2760.375,707.33
2762.311,703
2764.247,694.67
2766.181,694.33
2768.113,691
2770.045,688
2771.975,692
2773.905,669
2775.833,653
2777.76,638.67
2779.685,616.33
2781.61,631.33
2783.533,618.67
2785.455,621
2787.376,603
2789.296,598.67
2791.214,592.33
2793.132,577.33
2795.048,568
2796.963,563.67
2798.877,551.67
2800.79,556.33
2802.701,531.67
2804.611,521.67
2806.521,518.67
2808.429,507.33
2810.335,499.33
2812.241,495
2814.146,473.33
2816.049,458.33
2817.951,439.67
2819.852,-0.33
2821.752,0.33
2823.65,2.67
2825.548,0
