Wavenumber,Intensity
5500.82284,-0.07608
5499.85863,-0.07379
5498.89442,-0.07727
5497.93021,-0.08101
5496.966,-0.08193
5496.00179,-0.08149
5495.03757,-0.08079
5494.07336,-0.08428
5493.10915,-0.09601
5492.14494,-0.10725
5491.18073,-0.10566
5490.21652,-0.09449
5489.25231,-0.08395
5488.2881,-0.07826
5487.32389,-0.07619
5486.35968,-0.07511
5485.39547,-0.0742
5484.43126,-0.0745
5483.46704,-0.07573
5482.50283,-0.07744
5481.53862,-0.08092
5480.57441,-0.08575
5479.6102,-0.08882
5478.64599,-0.08905
5477.68178,-0.08787
5476.71757,-0.08502
5475.75336,-0.07913
5474.78915,-0.07358
5473.82494,-0.07492
5472.86073,-0.08219
5471.89651,-0.089
5470.9323,-0.09363
5469.96809,-0.09685
5469.00388,-0.09715
5468.03967,-0.0936
5467.07546,-0.08738
5466.11125,-0.08058
5465.14704,-0.07632
5464.18283,-0.07713
5463.21862,-0.08197
5462.25441,-0.08656
5461.2902,-0.08773
5460.32598,-0.08579
5459.36177,-0.08355
5458.39756,-0.08321
5457.43335,-0.08388
5456.46914,-0.08348
5455.50493,-0.08162
5454.54072,-0.0802
5453.57651,-0.08106
5452.6123,-0.083
5451.64809,-0.08291
5450.68388,-0.08051
5449.71967,-0.07884
5448.75545,-0.07967
5447.79124,-0.08161
5446.82703,-0.08262
5445.86282,-0.08212
5444.89861,-0.08138
5443.9344,-0.08232
5442.97019,-0.08552
5442.00598,-0.08941
5441.04177,-0.09103
5440.07756,-0.0894
5439.11335,-0.08718
5438.14913,-0.08601
5437.18492,-0.08488
5436.22071,-0.0841
5435.2565,-0.08543
5434.29229,-0.08824
5433.32808,-0.08933
5432.36387,-0.08725
5431.39966,-0.08394
5430.43545,-0.08191
5429.47124,-0.08168
5428.50703,-0.08218
5427.54282,-0.08275
5426.5786,-0.08362
5425.61439,-0.08494
5424.65018,-0.08647
5423.68597,-0.08752
5422.72176,-0.08733
5421.75755,-0.08609
5420.79334,-0.08487
5419.82913,-0.0845
5418.86492,-0.08536
5417.90071,-0.08702
5416.9365,-0.08828
5415.97229,-0.08842
5415.00807,-0.08804
5414.04386,-0.08745
5413.07965,-0.0863
5412.11544,-0.08542
5411.15123,-0.0857
5410.18702,-0.08634
5409.22281,-0.08634
5408.2586,-0.08548
5407.29439,-0.08426
5406.33018,-0.08385
5405.36597,-0.08485
5404.40176,-0.08652
5403.43754,-0.08779
5402.47333,-0.08835
5401.50912,-0.08868
5400.54491,-0.08903
5399.5807,-0.08913
5398.61649,-0.08897
5397.65228,-0.08875
5396.68807,-0.08836
5395.72386,-0.08745
5394.75965,-0.08613
5393.79544,-0.08502
5392.83123,-0.08468
5391.86701,-0.0851
5390.9028,-0.08588
5389.93859,-0.0869
5388.97438,-0.08797
5388.01017,-0.08849
5387.04596,-0.08834
5386.08175,-0.08836
5385.11754,-0.08901
5384.15333,-0.0896
5383.18912,-0.08935
5382.22491,-0.08856
5381.2607,-0.08802
5380.29648,-0.08768
5379.33227,-0.08715
5378.36806,-0.08669
5377.40385,-0.08646
5376.43964,-0.08593
5375.47543,-0.0853
5374.51122,-0.08528
5373.54701,-0.08575
5372.5828,-0.08636
5371.61859,-0.08685
5370.65438,-0.08698
5369.69017,-0.08678
5368.72595,-0.08652
5367.76174,-0.08674
5366.79753,-0.08778
5365.83332,-0.08891
5364.86911,-0.08896
5363.9049,-0.08775
5362.94069,-0.08601
5361.97648,-0.08438
5361.01227,-0.08301
5360.04806,-0.08208
5359.08385,-0.08196
5358.11964,-0.08265
5357.15542,-0.08382
5356.19121,-0.08537
5355.227,-0.08682
5354.26279,-0.08712
5353.29858,-0.08594
5352.33437,-0.08448
5351.37016,-0.08399
5350.40595,-0.0845
5349.44174,-0.08527
5348.47753,-0.0858
5347.51332,-0.08643
5346.54911,-0.08755
5345.58489,-0.08848
5344.62068,-0.08814
5343.65647,-0.08681
5342.69226,-0.08605
5341.72805,-0.08655
5340.76384,-0.08776
5339.79963,-0.0887
5338.83542,-0.08829
5337.87121,-0.08635
5336.907,-0.08436
5335.94279,-0.08362
5334.97858,-0.08402
5334.01436,-0.08505
5333.05015,-0.08633
5332.08594,-0.08737
5331.12173,-0.08772
5330.15752,-0.0873
5329.19331,-0.0865
5328.2291,-0.08583
5327.26489,-0.08544
5326.30068,-0.08519
5325.33647,-0.08498
5324.37226,-0.08492
5323.40805,-0.08544
5322.44383,-0.0867
5321.47962,-0.08808
5320.51541,-0.08853
5319.5512,-0.08763
5318.58699,-0.08604
5317.62278,-0.08488
5316.65857,-0.0847
5315.69436,-0.0852
5314.73015,-0.08577
5313.76594,-0.08604
5312.80173,-0.08613
5311.83752,-0.08637
5310.8733,-0.08664
5309.90909,-0.08645
5308.94488,-0.08557
5307.98067,-0.08433
5307.01646,-0.08347
5306.05225,-0.08366
5305.08804,-0.08476
5304.12383,-0.08581
5303.15962,-0.08609
5302.19541,-0.08596
5301.2312,-0.08601
5300.26698,-0.08611
5299.30277,-0.08587
5298.33856,-0.08539
5297.37435,-0.08495
5296.41014,-0.08468
5295.44593,-0.08467
5294.48172,-0.08489
5293.51751,-0.08508
5292.5533,-0.08494
5291.58909,-0.08458
5290.62488,-0.08416
5289.66067,-0.08358
5288.69645,-0.08316
5287.73224,-0.08361
5286.76803,-0.08467
5285.80382,-0.08525
5284.83961,-0.08487
5283.8754,-0.08429
5282.91119,-0.08452
5281.94698,-0.08558
5280.98277,-0.08657
5280.01856,-0.08677
5279.05435,-0.08615
5278.09014,-0.08516
5277.12592,-0.08432
5276.16171,-0.08394
5275.1975,-0.08409
5274.23329,-0.08451
5273.26908,-0.08471
5272.30487,-0.08458
5271.34066,-0.08476
5270.37645,-0.08544
5269.41224,-0.08585
5268.44803,-0.08544
5267.48382,-0.08465
5266.51961,-0.08418
5265.55539,-0.08432
5264.59118,-0.0848
5263.62697,-0.08492
5262.66276,-0.08474
5261.69855,-0.08487
5260.73434,-0.08494
5259.77013,-0.08469
5258.80592,-0.0848
5257.84171,-0.08558
5256.8775,-0.08652
5255.91329,-0.08697
5254.94908,-0.08644
5253.98486,-0.08508
5253.02065,-0.08411
5252.05644,-0.08425
5251.09223,-0.08482
5250.12802,-0.08536
5249.16381,-0.0859
5248.1996,-0.08587
5247.23539,-0.08476
5246.27118,-0.08397
5245.30697,-0.08468
5244.34276,-0.08563
5243.37855,-0.08525
5242.41433,-0.08424
5241.45012,-0.08417
5240.48591,-0.08506
5239.5217,-0.086
5238.55749,-0.08614
5237.59328,-0.08512
5236.62907,-0.08377
5235.66486,-0.08331
5234.70065,-0.08385
5233.73644,-0.08464
5232.77223,-0.08535
5231.80802,-0.08595
5230.8438,-0.08596
5229.87959,-0.0853
5228.91538,-0.08482
5227.95117,-0.085
5226.98696,-0.08555
5226.02275,-0.08596
5225.05854,-0.08562
5224.09433,-0.08475
5223.13012,-0.08438
5222.16591,-0.0845
5221.2017,-0.0846
5220.23749,-0.08488
5219.27327,-0.08547
5218.30906,-0.08581
5217.34485,-0.08557
5216.38064,-0.08509
5215.41643,-0.08487
5214.45222,-0.08515
5213.48801,-0.08561
5212.5238,-0.08565
5211.55959,-0.08534
5210.59538,-0.08519
5209.63117,-0.08526
5208.66696,-0.08515
5207.70274,-0.08486
5206.73853,-0.08477
5205.77432,-0.08452
5204.81011,-0.08407
5203.8459,-0.08437
5202.88169,-0.08549
5201.91748,-0.08625
5200.95327,-0.08598
5199.98906,-0.0851
5199.02485,-0.08442
5198.06064,-0.08437
5197.09643,-0.08459
5196.13221,-0.08438
5195.168,-0.08379
5194.20379,-0.08342
5193.23958,-0.08346
5192.27537,-0.08368
5191.31116,-0.08406
5190.34695,-0.08483
5189.38274,-0.08562
5188.41853,-0.0857
5187.45432,-0.08516
5186.49011,-0.0849
5185.5259,-0.08525
5184.56168,-0.08552
5183.59747,-0.08536
5182.63326,-0.08532
5181.66905,-0.08562
5180.70484,-0.08584
5179.74063,-0.08562
5178.77642,-0.0851
5177.81221,-0.08488
5176.848,-0.0853
5175.88379,-0.08597
5174.91958,-0.0864
5173.95536,-0.08643
5172.99115,-0.08604
5172.02694,-0.08548
5171.06273,-0.08506
5170.09852,-0.08468
5169.13431,-0.08435
5168.1701,-0.08445
5167.20589,-0.08492
5166.24168,-0.0852
5165.27747,-0.08521
5164.31326,-0.0853
5163.34905,-0.08532
5162.38483,-0.08513
5161.42062,-0.08504
5160.45641,-0.08506
5159.4922,-0.08495
5158.52799,-0.08499
5157.56378,-0.08546
5156.59957,-0.08585
5155.63536,-0.08555
5154.67115,-0.08483
5153.70694,-0.08443
5152.74273,-0.08449
5151.77852,-0.08466
5150.8143,-0.08466
5149.85009,-0.08462
5148.88588,-0.08476
5147.92167,-0.08492
5146.95746,-0.08499
5145.99325,-0.0852
5145.02904,-0.08546
5144.06483,-0.08534
5143.10062,-0.08497
5142.13641,-0.08489
5141.1722,-0.08512
5140.20799,-0.08522
5139.24377,-0.08501
5138.27956,-0.08478
5137.31535,-0.08485
5136.35114,-0.08516
5135.38693,-0.08535
5134.42272,-0.0852
5133.45851,-0.085
5132.4943,-0.08507
5131.53009,-0.08531
5130.56588,-0.08552
5129.60167,-0.08565
5128.63746,-0.08565
5127.67324,-0.08557
5126.70903,-0.08556
5125.74482,-0.0856
5124.78061,-0.08547
5123.8164,-0.08495
5122.85219,-0.08427
5121.88798,-0.08418
5120.92377,-0.0848
5119.95956,-0.08531
5118.99535,-0.08513
5118.03114,-0.08466
5117.06693,-0.08435
5116.10271,-0.08423
5115.1385,-0.08421
5114.17429,-0.08427
5113.21008,-0.08428
5112.24587,-0.08408
5111.28166,-0.08371
5110.31745,-0.08357
5109.35324,-0.08375
5108.38903,-0.08384
5107.42482,-0.08378
5106.46061,-0.08393
5105.4964,-0.08428
5104.53218,-0.08441
5103.56797,-0.08418
5102.60376,-0.08389
5101.63955,-0.08381
5100.67534,-0.08396
5099.71113,-0.08422
5098.74692,-0.08428
5097.78271,-0.08403
5096.8185,-0.08367
5095.85429,-0.08346
5094.89008,-0.08364
5093.92587,-0.08397
5092.96165,-0.08407
5091.99744,-0.0841
5091.03323,-0.08421
5090.06902,-0.08416
5089.10481,-0.08393
5088.1406,-0.08378
5087.17639,-0.08373
5086.21218,-0.08357
5085.24797,-0.08345
5084.28376,-0.08374
5083.31955,-0.08429
5082.35534,-0.08467
5081.39112,-0.08455
5080.42691,-0.08398
5079.4627,-0.08341
5078.49849,-0.08328
5077.53428,-0.08362
5076.57007,-0.08404
5075.60586,-0.08414
5074.64165,-0.08393
5073.67744,-0.08366
5072.71323,-0.08353
5071.74902,-0.08353
5070.78481,-0.08352
5069.82059,-0.08346
5068.85638,-0.08337
5067.89217,-0.08331
5066.92796,-0.08335
5065.96375,-0.08345
5064.99954,-0.0834
5064.03533,-0.08324
5063.07112,-0.08311
5062.10691,-0.08304
5061.1427,-0.08311
5060.17849,-0.08334
5059.21428,-0.08353
5058.25006,-0.08361
5057.28585,-0.08362
5056.32164,-0.0836
5055.35743,-0.08362
5054.39322,-0.0838
5053.42901,-0.08403
5052.4648,-0.08407
5051.50059,-0.08391
5050.53638,-0.0838
5049.57217,-0.08387
5048.60796,-0.08404
5047.64374,-0.08411
5046.67953,-0.08396
5045.71532,-0.08386
5044.75111,-0.08408
5043.7869,-0.08436
5042.82269,-0.08429
5041.85848,-0.08394
5040.89427,-0.08369
5039.93006,-0.08374
5038.96585,-0.08395
5038.00164,-0.08397
5037.03743,-0.08369
5036.07321,-0.08334
5035.109,-0.08322
5034.14479,-0.08339
5033.18058,-0.08361
5032.21637,-0.08371
5031.25216,-0.08382
5030.28795,-0.08404
5029.32374,-0.08414
5028.35953,-0.08394
5027.39532,-0.08367
5026.43111,-0.0835
5025.4669,-0.08328
5024.50268,-0.083
5023.53847,-0.08288
5022.57426,-0.08296
5021.61005,-0.08323
5020.64584,-0.08365
5019.68163,-0.08392
5018.71742,-0.08393
5017.75321,-0.08388
5016.789,-0.0839
5015.82479,-0.08394
5014.86058,-0.08396
5013.89637,-0.08405
5012.93215,-0.08422
5011.96794,-0.08427
5011.00373,-0.08406
5010.03952,-0.08382
5009.07531,-0.08376
5008.1111,-0.0838
5007.14689,-0.08391
5006.18268,-0.084
5005.21847,-0.08384
5004.25426,-0.08346
5003.29005,-0.0833
5002.32584,-0.08364
5001.36162,-0.08422
5000.39741,-0.08449
4999.4332,-0.08434
4998.46899,-0.08414
4997.50478,-0.08412
4996.54057,-0.08412
4995.57636,-0.08422
4994.61215,-0.08425
4993.64794,-0.084
4992.68373,-0.08371
4991.71952,-0.08365
4990.75531,-0.08387
4989.79109,-0.08424
4988.82688,-0.08445
4987.86267,-0.08434
4986.89846,-0.08411
4985.93425,-0.08386
4984.97004,-0.08368
4984.00583,-0.08375
4983.04162,-0.08381
4982.07741,-0.08355
4981.1132,-0.08333
4980.14899,-0.08358
4979.18478,-0.08403
4978.22056,-0.08427
4977.25635,-0.08416
4976.29214,-0.08382
4975.32793,-0.08344
4974.36372,-0.08328
4973.39951,-0.08353
4972.4353,-0.08389
4971.47109,-0.08398
4970.50688,-0.08388
4969.54267,-0.08371
4968.57846,-0.08354
4967.61425,-0.08361
4966.65003,-0.08386
4965.68582,-0.08392
4964.72161,-0.08389
4963.7574,-0.08405
4962.79319,-0.08434
4961.82898,-0.08474
4960.86477,-0.08504
4959.90056,-0.08491
4958.93635,-0.08449
4957.97214,-0.08408
4957.00793,-0.08375
4956.04372,-0.08368
4955.0795,-0.08395
4954.11529,-0.08429
4953.15108,-0.08447
4952.18687,-0.08458
4951.22266,-0.08468
4950.25845,-0.08472
4949.29424,-0.08461
4948.33003,-0.08439
4947.36582,-0.08421
4946.40161,-0.08429
4945.4374,-0.08458
4944.47319,-0.08458
4943.50897,-0.08414
4942.54476,-0.08379
4941.58055,-0.0838
4940.61634,-0.08396
4939.65213,-0.08415
4938.68792,-0.08422
4937.72371,-0.08408
4936.7595,-0.08415
4935.79529,-0.08445
4934.83108,-0.08452
4933.86687,-0.08444
4932.90266,-0.08441
4931.93844,-0.08429
4930.97423,-0.08418
4930.01002,-0.08421
4929.04581,-0.0842
4928.0816,-0.08403
4927.11739,-0.08381
4926.15318,-0.08378
4925.18897,-0.08404
4924.22476,-0.08431
4923.26055,-0.08432
4922.29634,-0.08417
4921.33213,-0.08406
4920.36791,-0.08399
4919.4037,-0.08389
4918.43949,-0.08379
4917.47528,-0.08378
4916.51107,-0.0838
4915.54686,-0.08368
4914.58265,-0.08354
4913.61844,-0.08356
4912.65423,-0.08367
4911.69002,-0.08384
4910.72581,-0.08397
4909.76159,-0.084
4908.79738,-0.08403
4907.83317,-0.08408
4906.86896,-0.08414
4905.90475,-0.08411
4904.94054,-0.08411
4903.97633,-0.08434
4903.01212,-0.08464
4902.04791,-0.08474
4901.0837,-0.08456
4900.11949,-0.08429
4899.15528,-0.0841
4898.19106,-0.0839
4897.22685,-0.0836
4896.26264,-0.0835
4895.29843,-0.08373
4894.33422,-0.08391
4893.37001,-0.08394
4892.4058,-0.08401
4891.44159,-0.08409
4890.47738,-0.08409
4889.51317,-0.08405
4888.54896,-0.08395
4887.58475,-0.08384
4886.62053,-0.0839
4885.65632,-0.08402
4884.69211,-0.08407
4883.7279,-0.08438
4882.76369,-0.08482
4881.79948,-0.0849
4880.83527,-0.08454
4879.87106,-0.08404
4878.90685,-0.08392
4877.94264,-0.08424
4876.97843,-0.08443
4876.01422,-0.08447
4875.05,-0.08463
4874.08579,-0.08467
4873.12158,-0.08447
4872.15737,-0.08431
4871.19316,-0.0843
4870.22895,-0.08422
4869.26474,-0.08403
4868.30053,-0.08392
4867.33632,-0.0841
4866.37211,-0.08441
4865.4079,-0.0845
4864.44369,-0.08459
4863.47947,-0.08483
4862.51526,-0.08478
4861.55105,-0.08427
4860.58684,-0.08388
4859.62263,-0.08398
4858.65842,-0.08419
4857.69421,-0.08404
4856.73,-0.08373
4855.76579,-0.08365
4854.80158,-0.08371
4853.83737,-0.08389
4852.87316,-0.08422
4851.90894,-0.08441
4850.94473,-0.08436
4849.98052,-0.08423
4849.01631,-0.08424
4848.0521,-0.08437
4847.08789,-0.08445
4846.12368,-0.08446
4845.15947,-0.08439
4844.19526,-0.08422
4843.23105,-0.08404
4842.26684,-0.08391
4841.30263,-0.08381
4840.33841,-0.08384
4839.3742,-0.08401
4838.40999,-0.08422
4837.44578,-0.08433
4836.48157,-0.08416
4835.51736,-0.08378
4834.55315,-0.08353
4833.58894,-0.08367
4832.62473,-0.08398
4831.66052,-0.08422
4830.69631,-0.08437
4829.7321,-0.08447
4828.76788,-0.08449
4827.80367,-0.08443
4826.83946,-0.08452
4825.87525,-0.08477
4824.91104,-0.08471
4823.94683,-0.0844
4822.98262,-0.08436
4822.01841,-0.08453
4821.0542,-0.08457
4820.08999,-0.08456
4819.12578,-0.08453
4818.16157,-0.08439
4817.19735,-0.08424
4816.23314,-0.08416
4815.26893,-0.08407
4814.30472,-0.08395
4813.34051,-0.08391
4812.3763,-0.08402
4811.41209,-0.08425
4810.44788,-0.08448
4809.48367,-0.08475
4808.51946,-0.08497
4807.55525,-0.08492
4806.59104,-0.08469
4805.62682,-0.08468
4804.66261,-0.08499
4803.6984,-0.08514
4802.73419,-0.0849
4801.76998,-0.08468
4800.80577,-0.08467
4799.84156,-0.0846
4798.87735,-0.08438
4797.91314,-0.08414
4796.94893,-0.08409
4795.98472,-0.08418
4795.02051,-0.08425
4794.05629,-0.08436
4793.09208,-0.08449
4792.12787,-0.08457
4791.16366,-0.08466
4790.19945,-0.08463
4789.23524,-0.08446
4788.27103,-0.08422
4787.30682,-0.08394
4786.34261,-0.08375
4785.3784,-0.08383
4784.41419,-0.08416
4783.44997,-0.08439
4782.48576,-0.08433
4781.52155,-0.08428
4780.55734,-0.08437
4779.59313,-0.08438
4778.62892,-0.08433
4777.66471,-0.08439
4776.7005,-0.08455
4775.73629,-0.08455
4774.77208,-0.08436
4773.80787,-0.08421
4772.84366,-0.08423
4771.87944,-0.0843
4770.91523,-0.0844
4769.95102,-0.08452
4768.98681,-0.08444
4768.0226,-0.08422
4767.05839,-0.08425
4766.09418,-0.08438
4765.12997,-0.08437
4764.16576,-0.08439
4763.20155,-0.0845
4762.23734,-0.08454
4761.27313,-0.08449
4760.30891,-0.08445
4759.3447,-0.08436
4758.38049,-0.08414
4757.41628,-0.08406
4756.45207,-0.08436
4755.48786,-0.08462
4754.52365,-0.08444
4753.55944,-0.08423
4752.59523,-0.08446
4751.63102,-0.08485
4750.66681,-0.08485
4749.7026,-0.08452
4748.73838,-0.08445
4747.77417,-0.08472
4746.80996,-0.08502
4745.84575,-0.0851
4744.88154,-0.0848
4743.91733,-0.08433
4742.95312,-0.08423
4741.98891,-0.08454
4741.0247,-0.08481
4740.06049,-0.08487
4739.09628,-0.08482
4738.13207,-0.08467
4737.16785,-0.08433
4736.20364,-0.0839
4735.23943,-0.08358
4734.27522,-0.08359
4733.31101,-0.08397
4732.3468,-0.08445
4731.38259,-0.08467
4730.41838,-0.08468
4729.45417,-0.08468
4728.48996,-0.08458
4727.52575,-0.08434
4726.56154,-0.08422
4725.59732,-0.08441
4724.63311,-0.08468
4723.6689,-0.08473
4722.70469,-0.08465
4721.74048,-0.08458
4720.77627,-0.08461
4719.81206,-0.0848
4718.84785,-0.08491
4717.88364,-0.08472
4716.91943,-0.08449
4715.95522,-0.08451
4714.99101,-0.08459
4714.02679,-0.08453
4713.06258,-0.08451
4712.09837,-0.08461
4711.13416,-0.0846
4710.16995,-0.08445
4709.20574,-0.08435
4708.24153,-0.08436
4707.27732,-0.08435
4706.31311,-0.08428
4705.3489,-0.08433
4704.38469,-0.08466
4703.42048,-0.08495
4702.45626,-0.08485
4701.49205,-0.08463
4700.52784,-0.08473
4699.56363,-0.08491
4698.59942,-0.08473
4697.63521,-0.08449
4696.671,-0.08462
4695.70679,-0.08491
4694.74258,-0.08512
4693.77837,-0.08514
4692.81416,-0.08488
4691.84995,-0.08452
4690.88573,-0.08431
4689.92152,-0.08434
4688.95731,-0.08456
4687.9931,-0.08472
4687.02889,-0.08464
4686.06468,-0.08452
4685.10047,-0.08459
4684.13626,-0.0847
4683.17205,-0.08471
4682.20784,-0.08468
4681.24363,-0.08462
4680.27942,-0.08457
4679.3152,-0.08455
4678.35099,-0.08448
4677.38678,-0.08437
4676.42257,-0.08431
4675.45836,-0.08441
4674.49415,-0.08463
4673.52994,-0.08485
4672.56573,-0.085
4671.60152,-0.08489
4670.63731,-0.08456
4669.6731,-0.08446
4668.70889,-0.08469
4667.74467,-0.0849
4666.78046,-0.08488
4665.81625,-0.08473
4664.85204,-0.08456
4663.88783,-0.08438
4662.92362,-0.08423
4661.95941,-0.08433
4660.9952,-0.08462
4660.03099,-0.08466
4659.06678,-0.08448
4658.10257,-0.0845
4657.13835,-0.08478
4656.17414,-0.08501
4655.20993,-0.08499
4654.24572,-0.08486
4653.28151,-0.0848
4652.3173,-0.08475
4651.35309,-0.08466
4650.38888,-0.08465
4649.42467,-0.08466
4648.46046,-0.08463
4647.49625,-0.08464
4646.53204,-0.08469
4645.56782,-0.08468
4644.60361,-0.08458
4643.6394,-0.08446
4642.67519,-0.08444
4641.71098,-0.08469
4640.74677,-0.08492
4639.78256,-0.08484
4638.81835,-0.08465
4637.85414,-0.08458
4636.88993,-0.08453
4635.92572,-0.08458
4634.96151,-0.0848
4633.99729,-0.08485
4633.03308,-0.08468
4632.06887,-0.08459
4631.10466,-0.08463
4630.14045,-0.08461
4629.17624,-0.08443
4628.21203,-0.08432
4627.24782,-0.08448
4626.28361,-0.08475
4625.3194,-0.08493
4624.35519,-0.08494
4623.39098,-0.08482
4622.42676,-0.08468
4621.46255,-0.08454
4620.49834,-0.08449
4619.53413,-0.08451
4618.56992,-0.08441
4617.60571,-0.08428
4616.6415,-0.08436
4615.67729,-0.08452
4614.71308,-0.08463
4613.74887,-0.08466
4612.78466,-0.08447
4611.82045,-0.08415
4610.85623,-0.08402
4609.89202,-0.08413
4608.92781,-0.08447
4607.9636,-0.08486
4606.99939,-0.08489
4606.03518,-0.08457
4605.07097,-0.08428
4604.10676,-0.08426
4603.14255,-0.08439
4602.17834,-0.08439
4601.21413,-0.08445
4600.24992,-0.0847
4599.2857,-0.08482
4598.32149,-0.08478
4597.35728,-0.08478
4596.39307,-0.08485
4595.42886,-0.08483
4594.46465,-0.08468
4593.50044,-0.08457
4592.53623,-0.0846
4591.57202,-0.08475
4590.60781,-0.08493
4589.6436,-0.08498
4588.67939,-0.08494
4587.71517,-0.08499
4586.75096,-0.08512
4585.78675,-0.08521
4584.82254,-0.08524
4583.85833,-0.08512
4582.89412,-0.08497
4581.92991,-0.08489
4580.9657,-0.0848
4580.00149,-0.08478
4579.03728,-0.08488
4578.07307,-0.08481
4577.10886,-0.08456
4576.14464,-0.0844
4575.18043,-0.08446
4574.21622,-0.08454
4573.25201,-0.08449
4572.2878,-0.08443
4571.32359,-0.0844
4570.35938,-0.08432
4569.39517,-0.08432
4568.43096,-0.08458
4567.46675,-0.08494
4566.50254,-0.08505
4565.53833,-0.08496
4564.57411,-0.08479
4563.6099,-0.08454
4562.64569,-0.08439
4561.68148,-0.08454
4560.71727,-0.08479
4559.75306,-0.0849
4558.78885,-0.08494
4557.82464,-0.08505
4556.86043,-0.08503
4555.89622,-0.0848
4554.93201,-0.08462
4553.9678,-0.0847
4553.00358,-0.08492
4552.03937,-0.08503
4551.07516,-0.08494
4550.11095,-0.08486
4549.14674,-0.08492
4548.18253,-0.08511
4547.21832,-0.08522
4546.25411,-0.08505
4545.2899,-0.08487
4544.32569,-0.08492
4543.36148,-0.08503
4542.39727,-0.08501
4541.43305,-0.0848
4540.46884,-0.08451
4539.50463,-0.08442
4538.54042,-0.08455
4537.57621,-0.08457
4536.612,-0.08441
4535.64779,-0.08429
4534.68358,-0.08435
4533.71937,-0.08455
4532.75516,-0.08478
4531.79095,-0.08485
4530.82673,-0.08476
4529.86252,-0.08476
4528.89831,-0.0849
4527.9341,-0.085
4526.96989,-0.08499
4526.00568,-0.08481
4525.04147,-0.08451
4524.07726,-0.08433
4523.11305,-0.08443
4522.14884,-0.08466
4521.18463,-0.0849
4520.22042,-0.08499
4519.2562,-0.08485
4518.29199,-0.08472
4517.32778,-0.08484
4516.36357,-0.08498
4515.39936,-0.08484
4514.43515,-0.08464
4513.47094,-0.08463
4512.50673,-0.08468
4511.54252,-0.08467
4510.57831,-0.08479
4509.6141,-0.08502
4508.64989,-0.08508
4507.68567,-0.08493
4506.72146,-0.08475
4505.75725,-0.08479
4504.79304,-0.08502
4503.82883,-0.08512
4502.86462,-0.08497
4501.90041,-0.08484
4500.9362,-0.08487
4499.97199,-0.08505
4499.00778,-0.0852
4498.04357,-0.08522
4497.07936,-0.08514
4496.11514,-0.08504
4495.15093,-0.085
4494.18672,-0.08502
4493.22251,-0.08499
4492.2583,-0.08485
4491.29409,-0.0847
4490.32988,-0.08473
4489.36567,-0.08496
4488.40146,-0.08512
4487.43725,-0.0851
4486.47304,-0.08505
4485.50883,-0.08502
4484.54461,-0.08489
4483.5804,-0.08477
4482.61619,-0.08475
4481.65198,-0.08466
4480.68777,-0.08445
4479.72356,-0.0843
4478.75935,-0.08436
4477.79514,-0.08458
4476.83093,-0.08471
4475.86672,-0.08468
4474.90251,-0.08472
4473.9383,-0.08489
4472.97408,-0.085
4472.00987,-0.08492
4471.04566,-0.08478
4470.08145,-0.08483
4469.11724,-0.085
4468.15303,-0.08495
4467.18882,-0.08483
4466.22461,-0.08488
4465.2604,-0.08487
4464.29619,-0.0847
4463.33198,-0.08462
4462.36777,-0.08463
4461.40355,-0.08454
4460.43934,-0.08447
4459.47513,-0.08454
4458.51092,-0.08459
4457.54671,-0.08468
4456.5825,-0.08488
4455.61829,-0.0849
4454.65408,-0.08465
4453.68987,-0.08447
4452.72566,-0.08452
4451.76145,-0.08454
4450.79724,-0.08447
4449.83302,-0.08449
4448.86881,-0.08453
4447.9046,-0.08452
4446.94039,-0.08451
4445.97618,-0.08454
4445.01197,-0.08462
4444.04776,-0.08472
4443.08355,-0.08477
4442.11934,-0.08477
4441.15513,-0.08478
4440.19092,-0.08486
4439.22671,-0.08496
4438.26249,-0.08495
4437.29828,-0.08484
4436.33407,-0.08471
4435.36986,-0.08463
4434.40565,-0.08466
4433.44144,-0.08473
4432.47723,-0.08467
4431.51302,-0.08449
4430.54881,-0.08436
4429.5846,-0.08435
4428.62039,-0.08435
4427.65618,-0.08425
4426.69196,-0.08422
4425.72775,-0.08435
4424.76354,-0.0844
4423.79933,-0.08431
4422.83512,-0.08435
4421.87091,-0.08454
4420.9067,-0.08473
4419.94249,-0.08479
4418.97828,-0.08473
4418.01407,-0.08467
4417.04986,-0.08462
4416.08565,-0.08462
4415.12143,-0.08465
4414.15722,-0.08468
4413.19301,-0.08472
4412.2288,-0.08476
4411.26459,-0.08477
4410.30038,-0.08476
4409.33617,-0.08474
4408.37196,-0.08478
4407.40775,-0.08478
4406.44354,-0.08467
4405.47933,-0.08465
4404.51512,-0.08463
4403.5509,-0.08431
4402.58669,-0.08398
4401.62248,-0.08406
4400.65827,-0.08439
4399.69406,-0.0846
4398.72985,-0.08467
4397.76564,-0.08468
4396.80143,-0.08463
4395.83722,-0.08455
4394.87301,-0.08449
4393.9088,-0.08447
4392.94458,-0.08453
4391.98037,-0.08456
4391.01616,-0.08454
4390.05195,-0.08461
4389.08774,-0.08479
4388.12353,-0.0849
4387.15932,-0.08477
4386.19511,-0.08451
4385.2309,-0.08434
4384.26669,-0.0843
4383.30248,-0.08433
4382.33827,-0.08433
4381.37405,-0.08434
4380.40984,-0.08437
4379.44563,-0.08432
4378.48142,-0.08427
4377.51721,-0.0844
4376.553,-0.08458
4375.58879,-0.08466
4374.62458,-0.08482
4373.66037,-0.08497
4372.69616,-0.08488
4371.73195,-0.08466
4370.76774,-0.08454
4369.80352,-0.08453
4368.83931,-0.08457
4367.8751,-0.08474
4366.91089,-0.08498
4365.94668,-0.08498
4364.98247,-0.08475
4364.01826,-0.08457
4363.05405,-0.08459
4362.08984,-0.08467
4361.12563,-0.08466
4360.16142,-0.08457
4359.19721,-0.08455
4358.23299,-0.08458
4357.26878,-0.08453
4356.30457,-0.08449
4355.34036,-0.08462
4354.37615,-0.08483
4353.41194,-0.08501
4352.44773,-0.08515
4351.48352,-0.08509
4350.51931,-0.08481
4349.5551,-0.08458
4348.59089,-0.08455
4347.62668,-0.08465
4346.66246,-0.08472
4345.69825,-0.08469
4344.73404,-0.0846
4343.76983,-0.08462
4342.80562,-0.0848
4341.84141,-0.08491
4340.8772,-0.0849
4339.91299,-0.08495
4338.94878,-0.08506
4337.98457,-0.08509
4337.02036,-0.08495
4336.05615,-0.08469
4335.09193,-0.08457
4334.12772,-0.08466
4333.16351,-0.08469
4332.1993,-0.08463
4331.23509,-0.08467
4330.27088,-0.08478
4329.30667,-0.08484
4328.34246,-0.08491
4327.37825,-0.08496
4326.41404,-0.08484
4325.44983,-0.08466
4324.48562,-0.08459
4323.5214,-0.08456
4322.55719,-0.08453
4321.59298,-0.08466
4320.62877,-0.08489
4319.66456,-0.08501
4318.70035,-0.08497
4317.73614,-0.08491
4316.77193,-0.08496
4315.80772,-0.08495
4314.84351,-0.08472
4313.8793,-0.08451
4312.91509,-0.08451
4311.95087,-0.08462
4310.98666,-0.08477
4310.02245,-0.08493
4309.05824,-0.08497
4308.09403,-0.0849
4307.12982,-0.08485
4306.16561,-0.08483
4305.2014,-0.08481
4304.23719,-0.08482
4303.27298,-0.08487
4302.30877,-0.08492
4301.34456,-0.08494
4300.38034,-0.0849
4299.41613,-0.08486
4298.45192,-0.0848
4297.48771,-0.0847
4296.5235,-0.08466
4295.55929,-0.08469
4294.59508,-0.08474
4293.63087,-0.08479
4292.66666,-0.08477
4291.70245,-0.08464
4290.73824,-0.08456
4289.77403,-0.08463
4288.80981,-0.0847
4287.8456,-0.08468
4286.88139,-0.08462
4285.91718,-0.08465
4284.95297,-0.08477
4283.98876,-0.08492
4283.02455,-0.08503
4282.06034,-0.08505
4281.09613,-0.08509
4280.13192,-0.08516
4279.16771,-0.08518
4278.2035,-0.08519
4277.23928,-0.08526
4276.27507,-0.08521
4275.31086,-0.08502
4274.34665,-0.08492
4273.38244,-0.08495
4272.41823,-0.08498
4271.45402,-0.08496
4270.48981,-0.08488
4269.5256,-0.08476
4268.56139,-0.08473
4267.59718,-0.08476
4266.63296,-0.08475
4265.66875,-0.08472
4264.70454,-0.08473
4263.74033,-0.08483
4262.77612,-0.0849
4261.81191,-0.08474
4260.8477,-0.08456
4259.88349,-0.08464
4258.91928,-0.08495
4257.95507,-0.08518
4256.99086,-0.08517
4256.02665,-0.08509
4255.06243,-0.08506
4254.09822,-0.08512
4253.13401,-0.08521
4252.1698,-0.08521
4251.20559,-0.08513
4250.24138,-0.08511
4249.27717,-0.08515
4248.31296,-0.0852
4247.34875,-0.08521
4246.38454,-0.0852
4245.42033,-0.08511
4244.45612,-0.08499
4243.4919,-0.08493
4242.52769,-0.08496
4241.56348,-0.08504
4240.59927,-0.08499
4239.63506,-0.08478
4238.67085,-0.08468
4237.70664,-0.08474
4236.74243,-0.08481
4235.77822,-0.08482
4234.81401,-0.08491
4233.8498,-0.08515
4232.88559,-0.08531
4231.92137,-0.08514
4230.95716,-0.08484
4229.99295,-0.08476
4229.02874,-0.08487
4228.06453,-0.08502
4227.10032,-0.08506
4226.13611,-0.08489
4225.1719,-0.08466
4224.20769,-0.08464
4223.24348,-0.08481
4222.27927,-0.08493
4221.31506,-0.08494
4220.35084,-0.08492
4219.38663,-0.08488
4218.42242,-0.08482
4217.45821,-0.08479
4216.494,-0.08482
4215.52979,-0.08499
4214.56558,-0.08521
4213.60137,-0.0853
4212.63716,-0.08528
4211.67295,-0.08534
4210.70874,-0.08529
4209.74453,-0.08502
4208.78031,-0.08485
4207.8161,-0.08493
4206.85189,-0.08511
4205.88768,-0.08517
4204.92347,-0.085
4203.95926,-0.08477
4202.99505,-0.08476
4202.03084,-0.08493
4201.06663,-0.08499
4200.10242,-0.08489
4199.13821,-0.08483
4198.174,-0.08487
4197.20978,-0.08493
4196.24557,-0.085
4195.28136,-0.08498
4194.31715,-0.08484
4193.35294,-0.08484
4192.38873,-0.08504
4191.42452,-0.08516
4190.46031,-0.08509
4189.4961,-0.08493
4188.53189,-0.08479
4187.56768,-0.08475
4186.60347,-0.08492
4185.63925,-0.08516
4184.67504,-0.08518
4183.71083,-0.085
4182.74662,-0.08488
4181.78241,-0.08494
4180.8182,-0.08502
4179.85399,-0.08498
4178.88978,-0.08491
4177.92557,-0.08483
4176.96136,-0.08468
4175.99715,-0.08459
4175.03294,-0.08473
4174.06872,-0.08495
4173.10451,-0.08501
4172.1403,-0.08488
4171.17609,-0.08482
4170.21188,-0.08492
4169.24767,-0.08496
4168.28346,-0.08491
4167.31925,-0.08495
4166.35504,-0.08502
4165.39083,-0.08509
4164.42662,-0.08521
4163.46241,-0.08521
4162.49819,-0.08505
4161.53398,-0.0849
4160.56977,-0.08479
4159.60556,-0.0848
4158.64135,-0.08496
4157.67714,-0.08501
4156.71293,-0.08486
4155.74872,-0.08473
4154.78451,-0.08474
4153.8203,-0.08476
4152.85609,-0.08467
4151.89188,-0.08463
4150.92766,-0.08475
4149.96345,-0.08495
4148.99924,-0.0851
4148.03503,-0.08509
4147.07082,-0.08492
4146.10661,-0.08479
4145.1424,-0.08481
4144.17819,-0.08491
4143.21398,-0.08504
4142.24977,-0.08504
4141.28556,-0.08488
4140.32134,-0.08484
4139.35713,-0.08494
4138.39292,-0.08491
4137.42871,-0.08475
4136.4645,-0.08471
4135.50029,-0.08483
4134.53608,-0.08502
4133.57187,-0.08516
4132.60766,-0.08515
4131.64345,-0.08504
4130.67924,-0.08494
4129.71503,-0.08485
4128.75081,-0.08485
4127.7866,-0.08496
4126.82239,-0.08513
4125.85818,-0.0852
4124.89397,-0.08507
4123.92976,-0.08492
4122.96555,-0.08486
4122.00134,-0.0848
4121.03713,-0.08475
4120.07292,-0.08476
4119.10871,-0.08484
4118.1445,-0.08501
4117.18028,-0.0852
4116.21607,-0.0853
4115.25186,-0.08523
4114.28765,-0.08511
4113.32344,-0.08516
4112.35923,-0.0853
4111.39502,-0.08526
4110.43081,-0.08502
4109.4666,-0.08477
4108.50239,-0.08466
4107.53818,-0.08478
4106.57397,-0.08498
4105.60975,-0.08494
4104.64554,-0.0848
4103.68133,-0.08479
4102.71712,-0.08478
4101.75291,-0.08474
4100.7887,-0.0848
4099.82449,-0.08493
4098.86028,-0.08503
4097.89607,-0.08502
4096.93186,-0.08497
4095.96765,-0.08507
4095.00344,-0.08518
4094.03922,-0.08509
4093.07501,-0.08492
4092.1108,-0.08484
4091.14659,-0.08484
4090.18238,-0.08488
4089.21817,-0.08491
4088.25396,-0.08495
4087.28975,-0.08501
4086.32554,-0.08506
4085.36133,-0.08505
4084.39712,-0.08505
4083.43291,-0.08507
4082.46869,-0.08502
4081.50448,-0.08488
4080.54027,-0.08477
4079.57606,-0.0847
4078.61185,-0.08465
4077.64764,-0.08471
4076.68343,-0.08486
4075.71922,-0.08497
4074.75501,-0.08501
4073.7908,-0.08505
4072.82659,-0.08507
4071.86238,-0.08502
4070.89816,-0.08491
4069.93395,-0.08481
4068.96974,-0.08473
4068.00553,-0.08475
4067.04132,-0.08489
4066.07711,-0.08497
4065.1129,-0.08495
4064.14869,-0.08496
4063.18448,-0.08496
4062.22027,-0.08484
4061.25606,-0.08469
4060.29185,-0.08469
4059.32763,-0.0848
4058.36342,-0.08488
4057.39921,-0.08486
4056.435,-0.0848
4055.47079,-0.08481
4054.50658,-0.08485
4053.54237,-0.08483
4052.57816,-0.08474
4051.61395,-0.08473
4050.64974,-0.08491
4049.68553,-0.08509
4048.72132,-0.0851
4047.7571,-0.08502
4046.79289,-0.08506
4045.82868,-0.08519
4044.86447,-0.08514
4043.90026,-0.08493
4042.93605,-0.08483
4041.97184,-0.08483
4041.00763,-0.08484
4040.04342,-0.08485
4039.07921,-0.08481
4038.115,-0.08475
4037.15079,-0.08474
4036.18657,-0.08473
4035.22236,-0.08471
4034.25815,-0.08471
4033.29394,-0.08477
4032.32973,-0.08489
4031.36552,-0.08497
4030.40131,-0.08498
4029.4371,-0.08496
4028.47289,-0.08494
4027.50868,-0.08495
4026.54447,-0.08503
4025.58026,-0.08494
4024.61604,-0.08464
4023.65183,-0.08454
4022.68762,-0.08471
4021.72341,-0.08484
4020.7592,-0.08493
4019.79499,-0.08502
4018.83078,-0.08498
4017.86657,-0.08488
4016.90236,-0.08483
4015.93815,-0.0848
4014.97394,-0.08474
4014.00972,-0.08463
4013.04551,-0.08451
4012.0813,-0.0845
4011.11709,-0.08465
4010.15288,-0.08494
4009.18867,-0.08522
4008.22446,-0.0852
4007.26025,-0.08484
4006.29604,-0.08467
4005.33183,-0.08484
4004.36762,-0.08491
4003.40341,-0.08468
4002.43919,-0.08447
4001.47498,-0.08456
4000.51077,-0.08488
3999.54656,-0.08511
3998.58235,-0.08513
3997.61814,-0.08499
3996.65393,-0.08486
3995.68972,-0.08487
3994.72551,-0.08489
3993.7613,-0.08484
3992.79709,-0.08492
3991.83288,-0.08513
3990.86866,-0.08518
3989.90445,-0.08501
3988.94024,-0.0848
3987.97603,-0.08475
3987.01182,-0.08488
3986.04761,-0.08502
3985.0834,-0.08499
3984.11919,-0.08493
3983.15498,-0.08493
3982.19077,-0.08489
3981.22656,-0.08479
3980.26235,-0.08475
3979.29813,-0.08478
3978.33392,-0.08487
3977.36971,-0.08496
3976.4055,-0.08497
3975.44129,-0.08486
3974.47708,-0.08478
3973.51287,-0.08484
3972.54866,-0.08494
3971.58445,-0.08499
3970.62024,-0.08502
3969.65603,-0.08503
3968.69182,-0.08494
3967.7276,-0.08483
3966.76339,-0.08483
3965.79918,-0.08492
3964.83497,-0.08506
3963.87076,-0.08526
3962.90655,-0.08537
3961.94234,-0.08519
3960.97813,-0.08476
3960.01392,-0.0845
3959.04971,-0.08462
3958.0855,-0.0849
3957.12129,-0.08507
3956.15707,-0.08513
3955.19286,-0.08521
3954.22865,-0.08529
3953.26444,-0.08526
3952.30023,-0.0852
3951.33602,-0.0853
3950.37181,-0.08545
3949.4076,-0.08541
3948.44339,-0.08518
3947.47918,-0.08493
3946.51497,-0.08483
3945.55076,-0.08503
3944.58654,-0.08544
3943.62233,-0.08568
3942.65812,-0.08545
3941.69391,-0.08495
3940.7297,-0.08468
3939.76549,-0.08472
3938.80128,-0.08477
3937.83707,-0.08473
3936.87286,-0.08474
3935.90865,-0.08497
3934.94444,-0.08537
3933.98023,-0.08573
3933.01601,-0.0858
3932.0518,-0.08546
3931.08759,-0.08497
3930.12338,-0.08464
3929.15917,-0.08453
3928.19496,-0.08462
3927.23075,-0.08503
3926.26654,-0.08564
3925.30233,-0.08599
3924.33812,-0.08571
3923.37391,-0.08512
3922.4097,-0.08479
3921.44548,-0.08491
3920.48127,-0.08514
3919.51706,-0.08524
3918.55285,-0.08533
3917.58864,-0.08541
3916.62443,-0.08515
3915.66022,-0.08463
3914.69601,-0.08442
3913.7318,-0.08462
3912.76759,-0.08491
3911.80338,-0.08505
3910.83917,-0.08506
3909.87495,-0.0851
3908.91074,-0.0853
3907.94653,-0.08575
3906.98232,-0.08635
3906.01811,-0.08679
3905.0539,-0.08672
3904.08969,-0.08615
3903.12548,-0.08551
3902.16127,-0.08517
3901.19706,-0.08508
3900.23285,-0.08513
3899.26864,-0.0849
3898.30442,-0.08417
3897.34021,-0.08359
3896.376,-0.08376
3895.41179,-0.08449
3894.44758,-0.08533
3893.48337,-0.08594
3892.51916,-0.08611
3891.55495,-0.08556
3890.59074,-0.08447
3889.62653,-0.08383
3888.66232,-0.08432
3887.69811,-0.08554
3886.73389,-0.08646
3885.76968,-0.08616
3884.80547,-0.08492
3883.84126,-0.0842
3882.87705,-0.08466
3881.91284,-0.08566
3880.94863,-0.08604
3879.98442,-0.08521
3879.02021,-0.08399
3878.056,-0.08371
3877.09179,-0.08447
3876.12757,-0.08555
3875.16336,-0.08623
3874.19915,-0.08604
3873.23494,-0.08534
3872.27073,-0.08527
3871.30652,-0.08597
3870.34231,-0.08617
3869.3781,-0.08506
3868.41389,-0.08385
3867.44968,-0.08412
3866.48547,-0.0855
3865.52126,-0.08641
3864.55704,-0.08596
3863.59283,-0.08489
3862.62862,-0.0843
3861.66441,-0.08414
3860.7002,-0.08409
3859.73599,-0.08435
3858.77178,-0.08499
3857.80757,-0.08577
3856.84336,-0.0866
3855.87915,-0.08766
3854.91494,-0.08856
3853.95073,-0.08794
3852.98651,-0.08528
3852.0223,-0.08244
3851.05809,-0.08127
3850.09388,-0.08177
3849.12967,-0.08292
3848.16546,-0.08394
3847.20125,-0.08474
3846.23704,-0.08547
3845.27283,-0.08608
3844.30862,-0.08625
3843.34441,-0.08593
3842.3802,-0.08573
3841.41598,-0.08609
3840.45177,-0.08657
3839.48756,-0.08666
3838.52335,-0.08626
3837.55914,-0.08533
3836.59493,-0.0844
3835.63072,-0.08409
3834.66651,-0.08415
3833.7023,-0.08433
3832.73809,-0.08467
3831.77388,-0.08471
3830.80967,-0.08424
3829.84545,-0.08398
3828.88124,-0.08441
3827.91703,-0.08504
3826.95282,-0.08519
3825.98861,-0.08485
3825.0244,-0.08474
3824.06019,-0.08543
3823.09598,-0.08668
3822.13177,-0.0875
3821.16756,-0.08684
3820.20335,-0.08492
3819.23914,-0.08372
3818.27492,-0.08422
3817.31071,-0.08539
3816.3465,-0.08558
3815.38229,-0.08432
3814.41808,-0.08303
3813.45387,-0.08287
3812.48966,-0.0835
3811.52545,-0.08425
3810.56124,-0.08498
3809.59703,-0.08577
3808.63282,-0.0865
3807.66861,-0.0866
3806.70439,-0.08565
3805.74018,-0.08443
3804.77597,-0.08439
3803.81176,-0.08559
3802.84755,-0.08683
3801.88334,-0.08676
3800.91913,-0.08512
3799.95492,-0.08351
3798.99071,-0.08346
3798.0265,-0.08445
3797.06229,-0.08508
3796.09808,-0.08468
3795.13386,-0.08392
3794.16965,-0.08369
3793.20544,-0.08404
3792.24123,-0.08453
3791.27702,-0.08487
3790.31281,-0.08501
3789.3486,-0.08504
3788.38439,-0.08506
3787.42018,-0.08519
3786.45597,-0.08535
3785.49176,-0.08527
3784.52755,-0.08483
3783.56333,-0.08441
3782.59912,-0.08454
3781.63491,-0.08522
3780.6707,-0.08587
3779.70649,-0.0858
3778.74228,-0.08494
3777.77807,-0.08412
3776.81386,-0.08398
3775.84965,-0.08433
3774.88544,-0.08475
3773.92123,-0.08507
3772.95702,-0.08539
3771.9928,-0.08573
3771.02859,-0.08585
3770.06438,-0.08535
3769.10017,-0.08445
3768.13596,-0.08413
3767.17175,-0.0847
3766.20754,-0.08525
3765.24333,-0.08503
3764.27912,-0.08448
3763.31491,-0.08445
3762.3507,-0.08509
3761.38649,-0.08601
3760.42227,-0.08658
3759.45806,-0.08628
3758.49385,-0.08536
3757.52964,-0.08468
3756.56543,-0.08445
3755.60122,-0.0846
3754.63701,-0.08543
3753.6728,-0.08684
3752.70859,-0.08787
3751.74438,-0.08759
3750.78017,-0.08633
3749.81595,-0.08496
3748.85174,-0.08383
3747.88753,-0.08361
3746.92332,-0.0848
3745.95911,-0.08648
3744.9949,-0.08679
3744.03069,-0.08487
3743.06648,-0.08263
3742.10227,-0.08211
3741.13806,-0.08285
3740.17385,-0.08386
3739.20964,-0.08493
3738.24542,-0.08598
3737.28121,-0.0867
3736.317,-0.08672
3735.35279,-0.08576
3734.38858,-0.08426
3733.42437,-0.08332
3732.46016,-0.08309
3731.49595,-0.08298
3730.53174,-0.08314
3729.56753,-0.08396
3728.60332,-0.08522
3727.63911,-0.08627
3726.67489,-0.08652
3725.71068,-0.08598
3724.74647,-0.08532
3723.78226,-0.08514
3722.81805,-0.08516
3721.85384,-0.08491
3720.88963,-0.08463
3719.92542,-0.08476
3718.96121,-0.08498
3717.997,-0.08484
3717.03279,-0.08457
3716.06858,-0.08457
3715.10436,-0.08492
3714.14015,-0.0856
3713.17594,-0.08626
3712.21173,-0.08616
3711.24752,-0.08508
3710.28331,-0.08398
3709.3191,-0.0834
3708.35489,-0.08313
3707.39068,-0.0832
3706.42647,-0.08359
3705.46226,-0.08409
3704.49805,-0.08456
3703.53383,-0.08499
3702.56962,-0.08507
3701.60541,-0.08445
3700.6412,-0.08358
3699.67699,-0.08331
3698.71278,-0.0837
3697.74857,-0.08425
3696.78436,-0.08462
3695.82015,-0.08479
3694.85594,-0.08496
3693.89173,-0.08533
3692.92752,-0.08588
3691.9633,-0.08627
3690.99909,-0.08599
3690.03488,-0.08505
3689.07067,-0.08391
3688.10646,-0.08273
3687.14225,-0.08188
3686.17804,-0.08198
3685.21383,-0.08269
3684.24962,-0.08323
3683.28541,-0.0834
3682.3212,-0.08349
3681.35699,-0.08374
3680.39277,-0.08402
3679.42856,-0.08419
3678.46435,-0.08454
3677.50014,-0.0854
3676.53593,-0.08603
3675.57172,-0.08489
3674.60751,-0.08209
3673.6433,-0.08053
3672.67909,-0.08152
3671.71488,-0.08352
3670.75067,-0.08438
3669.78646,-0.08333
3668.82224,-0.0815
3667.85803,-0.08036
3666.89382,-0.08035
3665.92961,-0.08095
3664.9654,-0.08151
3664.00119,-0.08182
3663.03698,-0.08195
3662.07277,-0.08197
3661.10856,-0.08196
3660.14435,-0.08198
3659.18014,-0.08215
3658.21593,-0.08249
3657.25171,-0.08258
3656.2875,-0.08186
3655.32329,-0.08059
3654.35908,-0.08006
3653.39487,-0.0809
3652.43066,-0.08255
3651.46645,-0.08392
3650.50224,-0.08399
3649.53803,-0.08258
3648.57382,-0.0806
3647.60961,-0.07888
3646.6454,-0.07768
3645.68118,-0.07735
3644.71697,-0.07791
3643.75276,-0.07879
3642.78855,-0.07934
3641.82434,-0.07936
3640.86013,-0.07916
3639.89592,-0.07902
3638.93171,-0.07892
3637.9675,-0.07872
3637.00329,-0.07849
3636.03908,-0.07847
3635.07487,-0.07862
3634.11065,-0.07861
3633.14644,-0.07835
3632.18223,-0.07841
3631.21802,-0.07921
3630.25381,-0.07997
3629.2896,-0.07931
3628.32539,-0.07704
3627.36118,-0.07506
3626.39697,-0.07464
3625.43276,-0.07523
3624.46855,-0.076
3623.50433,-0.07666
3622.54012,-0.07714
3621.57591,-0.07736
3620.6117,-0.07713
3619.64749,-0.07632
3618.68328,-0.07522
3617.71907,-0.07447
3616.75486,-0.07445
3615.79065,-0.07496
3614.82644,-0.07539
3613.86223,-0.07519
3612.89802,-0.07438
3611.9338,-0.07355
3610.96959,-0.07344
3610.00538,-0.07401
3609.04117,-0.07444
3608.07696,-0.0742
3607.11275,-0.07346
3606.14854,-0.07264
3605.18433,-0.07223
3604.22012,-0.07237
3603.25591,-0.07279
3602.2917,-0.07317
3601.32749,-0.07329
3600.36327,-0.07299
3599.39906,-0.07241
3598.43485,-0.07185
3597.47064,-0.07159
3596.50643,-0.07163
3595.54222,-0.07162
3594.57801,-0.07128
3593.6138,-0.07075
3592.64959,-0.07036
3591.68538,-0.07036
3590.72117,-0.07079
3589.75696,-0.07122
3588.79274,-0.07105
3587.82853,-0.07008
3586.86432,-0.06869
3585.90011,-0.06762
3584.9359,-0.06734
3583.97169,-0.06764
3583.00748,-0.06798
3582.04327,-0.06811
3581.07906,-0.06807
3580.11485,-0.06785
3579.15064,-0.06743
3578.18643,-0.06702
3577.22221,-0.06675
3576.258,-0.06657
3575.29379,-0.0664
3574.32958,-0.06617
3573.36537,-0.06588
3572.40116,-0.06566
3571.43695,-0.06565
3570.47274,-0.06592
3569.50853,-0.06634
3568.54432,-0.06649
3567.58011,-0.06591
3566.6159,-0.06465
3565.65168,-0.06338
3564.68747,-0.06276
3563.72326,-0.06273
3562.75905,-0.06288
3561.79484,-0.06295
3560.83063,-0.06285
3559.86642,-0.06255
3558.90221,-0.06218
3557.938,-0.06189
3556.97379,-0.06169
3556.00958,-0.06155
3555.04537,-0.0615
3554.08115,-0.06147
3553.11694,-0.06125
3552.15273,-0.0607
3551.18852,-0.06004
3550.22431,-0.05965
3549.2601,-0.05965
3548.29589,-0.05977
3547.33168,-0.05967
3546.36747,-0.0592
3545.40326,-0.0585
3544.43905,-0.05782
3543.47484,-0.05736
3542.51062,-0.05719
3541.54641,-0.05719
3540.5822,-0.05724
3539.61799,-0.05727
3538.65378,-0.05726
3537.68957,-0.05714
3536.72536,-0.05675
3535.76115,-0.05611
3534.79694,-0.05551
3533.83273,-0.05527
3532.86852,-0.0553
3531.90431,-0.05537
3530.94009,-0.05531
3529.97588,-0.05511
3529.01167,-0.0548
3528.04746,-0.05443
3527.08325,-0.05406
3526.11904,-0.05384
3525.15483,-0.05383
3524.19062,-0.05386
3523.22641,-0.05366
3522.2622,-0.05319
3521.29799,-0.05282
3520.33378,-0.05278
3519.36956,-0.05276
3518.40535,-0.0525
3517.44114,-0.05219
3516.47693,-0.05208
3515.51272,-0.05214
3514.54851,-0.05219
3513.5843,-0.0521
3512.62009,-0.05191
3511.65588,-0.05177
3510.69167,-0.05167
3509.72746,-0.05144
3508.76325,-0.05096
3507.79903,-0.05054
3506.83482,-0.05046
3505.87061,-0.05063
3504.9064,-0.05078
3503.94219,-0.05062
3502.97798,-0.05004
3502.01377,-0.04933
3501.04956,-0.04897
3500.08535,-0.04901
3499.12114,-0.04915
3498.15693,-0.04922
3497.19272,-0.04917
3496.2285,-0.04891
3495.26429,-0.04854
3494.30008,-0.04826
3493.33587,-0.04816
3492.37166,-0.04806
3491.40745,-0.04789
3490.44324,-0.04774
3489.47903,-0.04769
3488.51482,-0.04764
3487.55061,-0.04747
3486.5864,-0.04729
3485.62218,-0.04721
3484.65797,-0.04714
3483.69376,-0.04707
3482.72955,-0.04703
3481.76534,-0.0469
3480.80113,-0.04669
3479.83692,-0.04652
3478.87271,-0.04636
3477.9085,-0.0462
3476.94429,-0.04609
3475.98008,-0.04603
3475.01587,-0.04599
3474.05165,-0.0459
3473.08744,-0.04576
3472.12323,-0.04564
3471.15902,-0.04554
3470.19481,-0.04543
3469.2306,-0.0453
3468.26639,-0.04518
3467.30218,-0.04505
3466.33797,-0.04483
3465.37376,-0.04468
3464.40955,-0.04471
3463.44534,-0.04476
3462.48112,-0.04462
3461.51691,-0.04429
3460.5527,-0.04401
3459.58849,-0.04397
3458.62428,-0.04403
3457.66007,-0.04403
3456.69586,-0.044
3455.73165,-0.04405
3454.76744,-0.04411
3453.80323,-0.04404
3452.83902,-0.04387
3451.87481,-0.04378
3450.91059,-0.04381
3449.94638,-0.04384
3448.98217,-0.04382
3448.01796,-0.04371
3447.05375,-0.04333
3446.08954,-0.04282
3445.12533,-0.04261
3444.16112,-0.04269
3443.19691,-0.04277
3442.2327,-0.04266
3441.26849,-0.04249
3440.30428,-0.04252
3439.34006,-0.04258
3438.37585,-0.04246
3437.41164,-0.04231
3436.44743,-0.04228
3435.48322,-0.04233
3434.51901,-0.04241
3433.5548,-0.04249
3432.59059,-0.04251
3431.62638,-0.04242
3430.66217,-0.04218
3429.69796,-0.0419
3428.73375,-0.04172
3427.76953,-0.04161
3426.80532,-0.04151
3425.84111,-0.04143
3424.8769,-0.04145
3423.91269,-0.0416
3422.94848,-0.04172
3421.98427,-0.04162
3421.02006,-0.04139
3420.05585,-0.04106
3419.09164,-0.04079
3418.12743,-0.04079
3417.16322,-0.04096
3416.199,-0.04106
3415.23479,-0.04102
3414.27058,-0.0409
3413.30637,-0.04084
3412.34216,-0.04095
3411.37795,-0.04117
3410.41374,-0.0413
3409.44953,-0.0412
3408.48532,-0.04103
3407.52111,-0.041
3406.5569,-0.04106
3405.59269,-0.04111
3404.62847,-0.04111
3403.66426,-0.041
3402.70005,-0.04083
3401.73584,-0.04081
3400.77163,-0.04095
3399.80742,-0.04111
3398.84321,-0.0412
3397.879,-0.04118
3396.91479,-0.04096
3395.95058,-0.04081
3394.98637,-0.04093
3394.02216,-0.04111
3393.05794,-0.04111
3392.09373,-0.04096
3391.12952,-0.04092
3390.16531,-0.04108
3389.2011,-0.04126
3388.23689,-0.04141
3387.27268,-0.04155
3386.30847,-0.04162
3385.34426,-0.04161
3384.38005,-0.04159
3383.41584,-0.04156
3382.45163,-0.04156
3381.48741,-0.04165
3380.5232,-0.0418
3379.55899,-0.04194
3378.59478,-0.04204
3377.63057,-0.04205
3376.66636,-0.0421
3375.70215,-0.04231
3374.73794,-0.04258
3373.77373,-0.04274
3372.80952,-0.04278
3371.84531,-0.04275
3370.8811,-0.04273
3369.91688,-0.04285
3368.95267,-0.04309
3367.98846,-0.04334
3367.02425,-0.04348
3366.06004,-0.04348
3365.09583,-0.0434
3364.13162,-0.04338
3363.16741,-0.04357
3362.2032,-0.04384
3361.23899,-0.04401
3360.27478,-0.04416
3359.31056,-0.0443
3358.34635,-0.04434
3357.38214,-0.04439
3356.41793,-0.04452
3355.45372,-0.0446
3354.48951,-0.04456
3353.5253,-0.04455
3352.56109,-0.04468
3351.59688,-0.04493
3350.63267,-0.04515
3349.66846,-0.04534
3348.70425,-0.04553
3347.74003,-0.04564
3346.77582,-0.04566
3345.81161,-0.04568
3344.8474,-0.04575
3343.88319,-0.04581
3342.91898,-0.04587
3341.95477,-0.04602
3340.99056,-0.0462
3340.02635,-0.04631
3339.06214,-0.0464
3338.09793,-0.0466
3337.13372,-0.04684
3336.1695,-0.04695
3335.20529,-0.04694
3334.24108,-0.04687
3333.27687,-0.04682
3332.31266,-0.04698
3331.34845,-0.04724
3330.38424,-0.04736
3329.42003,-0.04736
3328.45582,-0.04743
3327.49161,-0.04751
3326.5274,-0.04753
3325.56319,-0.04761
3324.59897,-0.04776
3323.63476,-0.04783
3322.67055,-0.04782
3321.70634,-0.04782
3320.74213,-0.04791
3319.77792,-0.04804
3318.81371,-0.04811
3317.8495,-0.04813
3316.88529,-0.04819
3315.92108,-0.04827
3314.95687,-0.04835
3313.99266,-0.04846
3313.02844,-0.04851
3312.06423,-0.04845
3311.10002,-0.04839
3310.13581,-0.04839
3309.1716,-0.04834
3308.20739,-0.04819
3307.24318,-0.04808
3306.27897,-0.04809
3305.31476,-0.04817
3304.35055,-0.04829
3303.38634,-0.0484
3302.42213,-0.04846
3301.45791,-0.04849
3300.4937,-0.04854
3299.52949,-0.04858
3298.56528,-0.04864
3297.60107,-0.04868
3296.63686,-0.0486
3295.67265,-0.04846
3294.70844,-0.04838
3293.74423,-0.04843
3292.78002,-0.04857
3291.81581,-0.04868
3290.8516,-0.04874
3289.88738,-0.04882
3288.92317,-0.04889
3287.95896,-0.04897
3286.99475,-0.04912
3286.03054,-0.0493
3285.06633,-0.04935
3284.10212,-0.0493
3283.13791,-0.04934
3282.1737,-0.04953
3281.20949,-0.04975
3280.24528,-0.04981
3279.28107,-0.04967
3278.31685,-0.04958
3277.35264,-0.04969
3276.38843,-0.0498
3275.42422,-0.04987
3274.46001,-0.04994
3273.4958,-0.04995
3272.53159,-0.04999
3271.56738,-0.05019
3270.60317,-0.05038
3269.63896,-0.05047
3268.67475,-0.05048
3267.71054,-0.05045
3266.74632,-0.05044
3265.78211,-0.0505
3264.8179,-0.05057
3263.85369,-0.05068
3262.88948,-0.05087
3261.92527,-0.0511
3260.96106,-0.05131
3259.99685,-0.0515
3259.03264,-0.05162
3258.06843,-0.0517
3257.10422,-0.0518
3256.14001,-0.05193
3255.17579,-0.05212
3254.21158,-0.05234
3253.24737,-0.05247
3252.28316,-0.0525
3251.31895,-0.05254
3250.35474,-0.05258
3249.39053,-0.0526
3248.42632,-0.05264
3247.46211,-0.0527
3246.4979,-0.05284
3245.53369,-0.0531
3244.56948,-0.05335
3243.60526,-0.0535
3242.64105,-0.05365
3241.67684,-0.05386
3240.71263,-0.05408
3239.74842,-0.05422
3238.78421,-0.05428
3237.82,-0.05435
3236.85579,-0.05444
3235.89158,-0.05448
3234.92737,-0.05451
3233.96316,-0.05463
3232.99894,-0.05482
3232.03473,-0.05501
3231.07052,-0.05527
3230.10631,-0.05553
3229.1421,-0.05566
3228.17789,-0.05567
3227.21368,-0.05571
3226.24947,-0.0559
3225.28526,-0.05624
3224.32105,-0.05658
3223.35684,-0.05681
3222.39263,-0.05693
3221.42841,-0.05702
3220.4642,-0.05713
3219.49999,-0.05721
3218.53578,-0.05719
3217.57157,-0.05724
3216.60736,-0.05743
3215.64315,-0.05775
3214.67894,-0.0581
3213.71473,-0.05834
3212.75052,-0.05849
3211.78631,-0.0587
3210.8221,-0.0589
3209.85788,-0.05898
3208.89367,-0.05903
3207.92946,-0.05921
3206.96525,-0.05949
3206.00104,-0.05972
3205.03683,-0.05991
3204.07262,-0.06013
3203.10841,-0.06035
3202.1442,-0.06059
3201.17999,-0.0608
3200.21578,-0.06092
3199.25157,-0.06096
3198.28735,-0.06104
3197.32314,-0.0612
3196.35893,-0.06142
3195.39472,-0.06164
3194.43051,-0.06179
3193.4663,-0.0619
3192.50209,-0.06204
3191.53788,-0.06226
3190.57367,-0.06251
3189.60946,-0.06268
3188.64525,-0.06276
3187.68104,-0.06286
3186.71682,-0.06309
3185.75261,-0.06336
3184.7884,-0.06347
3183.82419,-0.06351
3182.85998,-0.06371
3181.89577,-0.064
3180.93156,-0.06423
3179.96735,-0.06445
3179.00314,-0.06466
3178.03893,-0.06471
3177.07472,-0.06466
3176.11051,-0.0648
3175.14629,-0.06511
3174.18208,-0.06531
3173.21787,-0.06536
3172.25366,-0.06545
3171.28945,-0.06563
3170.32524,-0.06578
3169.36103,-0.0659
3168.39682,-0.06608
3167.43261,-0.06629
3166.4684,-0.06649
3165.50419,-0.0667
3164.53998,-0.06693
3163.57576,-0.06715
3162.61155,-0.0673
3161.64734,-0.06736
3160.68313,-0.0674
3159.71892,-0.06752
3158.75471,-0.06771
3157.7905,-0.06791
3156.82629,-0.06811
3155.86208,-0.06824
3154.89787,-0.06826
3153.93366,-0.06828
3152.96945,-0.06843
3152.00523,-0.06865
3151.04102,-0.06884
3150.07681,-0.069
3149.1126,-0.06916
3148.14839,-0.06931
3147.18418,-0.06948
3146.21997,-0.06963
3145.25576,-0.06971
3144.29155,-0.06979
3143.32734,-0.06992
3142.36313,-0.07004
3141.39892,-0.07013
3140.4347,-0.07023
3139.47049,-0.07028
3138.50628,-0.07032
3137.54207,-0.07046
3136.57786,-0.07069
3135.61365,-0.07094
3134.64944,-0.07118
3133.68523,-0.07129
3132.72102,-0.07121
3131.75681,-0.07118
3130.7926,-0.07136
3129.82839,-0.07163
3128.86417,-0.07185
3127.89996,-0.07203
3126.93575,-0.07215
3125.97154,-0.07218
3125.00733,-0.07225
3124.04312,-0.07243
3123.07891,-0.07259
3122.1147,-0.07267
3121.15049,-0.07278
3120.18628,-0.07297
3119.22207,-0.07303
3118.25786,-0.07292
3117.29364,-0.07288
3116.32943,-0.073
3115.36522,-0.07313
3114.40101,-0.07326
3113.4368,-0.07343
3112.47259,-0.07359
3111.50838,-0.07364
3110.54417,-0.07362
3109.57996,-0.0737
3108.61575,-0.07384
3107.65154,-0.07392
3106.68732,-0.07396
3105.72311,-0.07408
3104.7589,-0.07426
3103.79469,-0.0744
3102.83048,-0.0745
3101.86627,-0.07457
3100.90206,-0.07458
3099.93785,-0.07456
3098.97364,-0.07461
3098.00943,-0.07477
3097.04522,-0.07496
3096.08101,-0.07504
3095.11679,-0.07496
3094.15258,-0.07489
3093.18837,-0.07493
3092.22416,-0.07506
3091.25995,-0.07525
3090.29574,-0.07542
3089.33153,-0.07553
3088.36732,-0.07559
3087.40311,-0.07563
3086.4389,-0.07567
3085.47469,-0.07576
3084.51048,-0.07586
3083.54626,-0.07596
3082.58205,-0.07605
3081.61784,-0.07614
3080.65363,-0.0762
3079.68942,-0.07627
3078.72521,-0.07638
3077.761,-0.07652
3076.79679,-0.07659
3075.83258,-0.07662
3074.86837,-0.07672
3073.90416,-0.07685
3072.93995,-0.07693
3071.97573,-0.07691
3071.01152,-0.07685
3070.04731,-0.07688
3069.0831,-0.077
3068.11889,-0.07711
3067.15468,-0.07716
3066.19047,-0.07725
3065.22626,-0.07741
3064.26205,-0.0775
3063.29784,-0.07745
3062.33363,-0.07742
3061.36942,-0.07747
3060.4052,-0.07753
3059.44099,-0.07761
3058.47678,-0.07768
3057.51257,-0.07773
3056.54836,-0.07772
3055.58415,-0.07767
3054.61994,-0.07772
3053.65573,-0.07789
3052.69152,-0.07803
3051.72731,-0.07809
3050.7631,-0.0781
3049.79889,-0.07814
3048.83467,-0.07819
3047.87046,-0.07819
3046.90625,-0.07821
3045.94204,-0.07832
3044.97783,-0.07841
3044.01362,-0.07841
3043.04941,-0.07834
3042.0852,-0.0783
3041.12099,-0.07836
3040.15678,-0.07849
3039.19257,-0.07856
3038.22836,-0.07856
3037.26414,-0.07857
3036.29993,-0.07864
3035.33572,-0.07869
3034.37151,-0.07863
3033.4073,-0.07852
3032.44309,-0.07851
3031.47888,-0.0785
3030.51467,-0.07839
3029.55046,-0.07829
3028.58625,-0.07834
3027.62204,-0.07846
3026.65783,-0.07847
3025.69361,-0.07829
3024.7294,-0.07807
3023.76519,-0.07797
3022.80098,-0.07794
3021.83677,-0.07787
3020.87256,-0.07774
3019.90835,-0.07763
3018.94414,-0.07761
3017.97993,-0.07765
3017.01572,-0.07766
3016.05151,-0.07753
3015.0873,-0.07724
3014.12308,-0.07689
3013.15887,-0.07657
3012.19466,-0.07628
3011.23045,-0.07607
3010.26624,-0.0759
3009.30203,-0.0756
3008.33782,-0.07517
3007.37361,-0.07472
3006.4094,-0.07431
3005.44519,-0.07402
3004.48098,-0.07379
3003.51677,-0.07346
3002.55255,-0.07298
3001.58834,-0.07243
3000.62413,-0.07188
2999.65992,-0.07127
2998.69571,-0.07066
2997.7315,-0.07008
2996.76729,-0.06947
2995.80308,-0.06882
2994.83887,-0.06827
2993.87466,-0.06787
2992.91045,-0.06749
2991.94624,-0.06704
2990.98202,-0.0665
2990.01781,-0.06588
2989.0536,-0.06529
2988.08939,-0.06483
2987.12518,-0.06445
2986.16097,-0.06407
2985.19676,-0.06367
2984.23255,-0.0633
2983.26834,-0.06299
2982.30413,-0.06274
2981.33992,-0.0625
2980.37571,-0.06214
2979.41149,-0.06171
2978.44728,-0.06142
2977.48307,-0.0613
2976.51886,-0.06121
2975.55465,-0.06097
2974.59044,-0.06064
2973.62623,-0.06044
2972.66202,-0.06032
2971.69781,-0.06006
2970.7336,-0.05977
2969.76939,-0.0596
2968.80517,-0.05955
2967.84096,-0.0596
2966.87675,-0.05965
2965.91254,-0.05955
2964.94833,-0.05944
2963.98412,-0.05952
2963.01991,-0.0597
2962.0557,-0.05985
2961.09149,-0.05989
2960.12728,-0.0599
2959.16307,-0.06001
2958.19886,-0.06017
2957.23464,-0.06019
2956.27043,-0.06004
2955.30622,-0.05985
2954.34201,-0.05967
2953.3778,-0.05957
2952.41359,-0.05967
2951.44938,-0.05979
2950.48517,-0.05974
2949.52096,-0.05965
2948.55675,-0.05964
2947.59254,-0.05967
2946.62833,-0.0597
2945.66411,-0.05972
2944.6999,-0.05971
2943.73569,-0.05969
2942.77148,-0.05972
2941.80727,-0.05978
2940.84306,-0.05981
2939.87885,-0.0598
2938.91464,-0.05968
2937.95043,-0.05942
2936.98622,-0.05916
2936.02201,-0.059
2935.0578,-0.05897
2934.09358,-0.05903
2933.12937,-0.05909
2932.16516,-0.05904
2931.20095,-0.05895
2930.23674,-0.05899
2929.27253,-0.05906
2928.30832,-0.059
2927.34411,-0.05893
2926.3799,-0.05898
2925.41569,-0.05913
2924.45148,-0.05933
2923.48727,-0.05951
2922.52305,-0.05962
2921.55884,-0.05964
2920.59463,-0.05966
2919.63042,-0.05986
2918.66621,-0.06023
2917.702,-0.06057
2916.73779,-0.0609
2915.77358,-0.06127
2914.80937,-0.06161
2913.84516,-0.06193
2912.88095,-0.06226
2911.91674,-0.06261
2910.95252,-0.06302
2909.98831,-0.06347
2909.0241,-0.06381
2908.05989,-0.064
2907.09568,-0.06412
2906.13147,-0.0642
2905.16726,-0.06429
2904.20305,-0.06437
2903.23884,-0.06443
2902.27463,-0.06451
2901.31042,-0.06454
2900.34621,-0.06449
2899.38199,-0.06446
2898.41778,-0.06448
2897.45357,-0.06453
2896.48936,-0.06459
2895.52515,-0.06461
2894.56094,-0.06468
2893.59673,-0.06478
2892.63252,-0.06483
2891.66831,-0.06486
2890.7041,-0.06487
2889.73989,-0.06489
2888.77568,-0.06493
2887.81146,-0.06503
2886.84725,-0.06518
2885.88304,-0.06526
2884.91883,-0.06523
2883.95462,-0.06524
2882.99041,-0.06535
2882.0262,-0.06545
2881.06199,-0.06546
2880.09778,-0.06539
2879.13357,-0.06533
2878.16936,-0.06537
2877.20515,-0.06546
2876.24093,-0.06549
2875.27672,-0.06544
2874.31251,-0.06542
2873.3483,-0.06549
2872.38409,-0.06557
2871.41988,-0.06566
2870.45567,-0.06587
2869.49146,-0.06616
2868.52725,-0.06637
2867.56304,-0.06656
2866.59883,-0.06682
2865.63462,-0.06705
2864.6704,-0.0672
2863.70619,-0.06741
2862.74198,-0.06776
2861.77777,-0.06811
2860.81356,-0.06835
2859.84935,-0.06859
2858.88514,-0.06897
2857.92093,-0.06942
2856.95672,-0.06986
2855.99251,-0.07031
2855.0283,-0.0707
2854.06409,-0.07103
2853.09987,-0.07139
2852.13566,-0.07184
2851.17145,-0.07239
2850.20724,-0.07301
2849.24303,-0.07373
2848.27882,-0.07449
2847.31461,-0.07518
2846.3504,-0.07579
2845.38619,-0.07636
2844.42198,-0.07687
2843.45777,-0.07731
2842.49355,-0.07775
2841.52934,-0.07817
2840.56513,-0.07855
2839.60092,-0.07886
2838.63671,-0.07914
2837.6725,-0.07945
2836.70829,-0.07977
2835.74408,-0.07996
2834.77987,-0.08002
2833.81566,-0.08017
2832.85145,-0.08044
2831.88724,-0.08074
2830.92302,-0.08096
2829.95881,-0.08109
2828.9946,-0.08123
2828.03039,-0.08143
2827.06618,-0.08161
2826.10197,-0.08176
2825.13776,-0.08192
2824.17355,-0.0821
2823.20934,-0.08222
2822.24513,-0.08232
2821.28092,-0.08248
2820.31671,-0.08266
2819.35249,-0.08274
2818.38828,-0.08276
2817.42407,-0.08284
2816.45986,-0.08295
2815.49565,-0.083
2814.53144,-0.08303
2813.56723,-0.08312
2812.60302,-0.08324
2811.63881,-0.08328
2810.6746,-0.0833
2809.71039,-0.08336
2808.74618,-0.08344
2807.78196,-0.08347
2806.81775,-0.08347
2805.85354,-0.08352
2804.88933,-0.08359
2803.92512,-0.08367
2802.96091,-0.08375
2801.9967,-0.08378
2801.03249,-0.08375
2800.06828,-0.08373
2799.10407,-0.08376
2798.13986,-0.08387
2797.17565,-0.08394
2796.21143,-0.08391
2795.24722,-0.08382
2794.28301,-0.08375
2793.3188,-0.08374
2792.35459,-0.08378
2791.39038,-0.08387
2790.42617,-0.08395
2789.46196,-0.08391
2788.49775,-0.08377
2787.53354,-0.08372
2786.56933,-0.08384
2785.60512,-0.08402
2784.6409,-0.08413
2783.67669,-0.08416
2782.71248,-0.08411
2781.74827,-0.08406
2780.78406,-0.08409
2779.81985,-0.0842
2778.85564,-0.08423
2777.89143,-0.08411
2776.92722,-0.08399
2775.96301,-0.08397
2774.9988,-0.08401
2774.03459,-0.08411
2773.07037,-0.08425
2772.10616,-0.08433
2771.14195,-0.08431
2770.17774,-0.0843
2769.21353,-0.08432
2768.24932,-0.08429
2767.28511,-0.08421
2766.3209,-0.08419
2765.35669,-0.08426
2764.39248,-0.08437
2763.42827,-0.08444
2762.46406,-0.08447
2761.49984,-0.08445
2760.53563,-0.08442
2759.57142,-0.0844
2758.60721,-0.08437
2757.643,-0.08436
2756.67879,-0.08439
2755.71458,-0.0844
2754.75037,-0.08442
2753.78616,-0.08451
2752.82195,-0.08462
2751.85774,-0.08467
2750.89353,-0.08468
2749.92931,-0.08465
2748.9651,-0.08459
2748.00089,-0.08458
2747.03668,-0.08467
2746.07247,-0.08476
2745.10826,-0.08473
2744.14405,-0.08462
2743.17984,-0.08459
2742.21563,-0.08468
2741.25142,-0.0848
2740.28721,-0.08484
2739.323,-0.08483
2738.35878,-0.08479
2737.39457,-0.08477
2736.43036,-0.08479
2735.46615,-0.08479
2734.50194,-0.08476
2733.53773,-0.08477
2732.57352,-0.0848
2731.60931,-0.08473
2730.6451,-0.08458
2729.68089,-0.0845
2728.71668,-0.08461
2727.75247,-0.08482
2726.78825,-0.08493
2725.82404,-0.08492
2724.85983,-0.08498
2723.89562,-0.08508
2722.93141,-0.08513
2721.9672,-0.08513
2721.00299,-0.0851
2720.03878,-0.08505
2719.07457,-0.08506
2718.11036,-0.08514
2717.14615,-0.08518
2716.18193,-0.08511
2715.21772,-0.08503
2714.25351,-0.08502
2713.2893,-0.08502
2712.32509,-0.08502
2711.36088,-0.08508
2710.39667,-0.08517
2709.43246,-0.0852
2708.46825,-0.08518
2707.50404,-0.08521
2706.53983,-0.08531
2705.57562,-0.0854
2704.6114,-0.08543
2703.64719,-0.08542
2702.68298,-0.0854
2701.71877,-0.08537
2700.75456,-0.08528
2699.79035,-0.0852
2698.82614,-0.08524
2697.86193,-0.08534
2696.89772,-0.08533
2695.93351,-0.08529
2694.9693,-0.08533
2694.00509,-0.08543
2693.04087,-0.0855
2692.07666,-0.08549
2691.11245,-0.08545
2690.14824,-0.08546
2689.18403,-0.0855
2688.21982,-0.08545
2687.25561,-0.0854
2686.2914,-0.08544
2685.32719,-0.08548
2684.36298,-0.08547
2683.39877,-0.0855
2682.43456,-0.08554
2681.47034,-0.08554
2680.50613,-0.08556
2679.54192,-0.08561
2678.57771,-0.08559
2677.6135,-0.08551
2676.64929,-0.08544
2675.68508,-0.08539
2674.72087,-0.08539
2673.75666,-0.08544
2672.79245,-0.08546
2671.82824,-0.08542
2670.86403,-0.08542
2669.89981,-0.08547
2668.9356,-0.08552
2667.97139,-0.08552
2667.00718,-0.0855
2666.04297,-0.08549
2665.07876,-0.08547
2664.11455,-0.08545
2663.15034,-0.08552
2662.18613,-0.08559
2661.22192,-0.0856
2660.25771,-0.08562
2659.2935,-0.08565
2658.32928,-0.08568
2657.36507,-0.08566
2656.40086,-0.08559
2655.43665,-0.08549
2654.47244,-0.08546
2653.50823,-0.0855
2652.54402,-0.08556
2651.57981,-0.08561
2650.6156,-0.08561
2649.65139,-0.08555
2648.68718,-0.08551
2647.72297,-0.08553
2646.75875,-0.08561
2645.79454,-0.08566
2644.83033,-0.08561
2643.86612,-0.08555
2642.90191,-0.08553
2641.9377,-0.08554
2640.97349,-0.08552
2640.00928,-0.08548
2639.04507,-0.0855
2638.08086,-0.08558
2637.11665,-0.0856
2636.15244,-0.08553
2635.18822,-0.08549
2634.22401,-0.08555
2633.2598,-0.08562
2632.29559,-0.08561
2631.33138,-0.08555
2630.36717,-0.0855
2629.40296,-0.08551
2628.43875,-0.08558
2627.47454,-0.08562
2626.51033,-0.08559
2625.54612,-0.08557
2624.58191,-0.0856
2623.61769,-0.08566
2622.65348,-0.08566
2621.68927,-0.08562
2620.72506,-0.0856
2619.76085,-0.08559
2618.79664,-0.08555
2617.83243,-0.08553
2616.86822,-0.08555
2615.90401,-0.0856
2614.9398,-0.08565
2613.97559,-0.08569
2613.01138,-0.08568
2612.04716,-0.0856
2611.08295,-0.08554
2610.11874,-0.0856
2609.15453,-0.08569
2608.19032,-0.08574
2607.22611,-0.08576
2606.2619,-0.08581
2605.29769,-0.08586
2604.33348,-0.08581
2603.36927,-0.08571
2602.40506,-0.08563
2601.44085,-0.0856
2600.47663,-0.08559
2599.51242,-0.08558
2598.54821,-0.0856
2597.584,-0.08564
2596.61979,-0.08567
2595.65558,-0.08568
2594.69137,-0.08566
2593.72716,-0.08559
2592.76295,-0.08554
2591.79874,-0.08557
2590.83453,-0.08566
2589.87032,-0.08571
2588.9061,-0.08572
2587.94189,-0.08575
2586.97768,-0.08579
2586.01347,-0.0858
2585.04926,-0.08582
2584.08505,-0.08582
2583.12084,-0.08575
2582.15663,-0.08561
2581.19242,-0.08553
2580.22821,-0.08558
2579.264,-0.08569
2578.29978,-0.08575
2577.33557,-0.08577
2576.37136,-0.08574
2575.40715,-0.08568
2574.44294,-0.08565
2573.47873,-0.08565
2572.51452,-0.08565
2571.55031,-0.08565
2570.5861,-0.08568
2569.62189,-0.08574
2568.65768,-0.08577
2567.69347,-0.08576
2566.72925,-0.0858
2565.76504,-0.08587
2564.80083,-0.08589
2563.83662,-0.08587
2562.87241,-0.08586
2561.9082,-0.08584
2560.94399,-0.08581
2559.97978,-0.08578
2559.01557,-0.08579
2558.05136,-0.08584
2557.08715,-0.08587
2556.12294,-0.08584
2555.15872,-0.08581
2554.19451,-0.08583
2553.2303,-0.08589
2552.26609,-0.08595
2551.30188,-0.08599
2550.33767,-0.08599
2549.37346,-0.08592
2548.40925,-0.08585
2547.44504,-0.08583
2546.48083,-0.08584
2545.51662,-0.0858
2544.55241,-0.08577
2543.58819,-0.08579
2542.62398,-0.0858
2541.65977,-0.08579
2540.69556,-0.08577
2539.73135,-0.08576
2538.76714,-0.08576
2537.80293,-0.08576
2536.83872,-0.08574
2535.87451,-0.08576
2534.9103,-0.08582
2533.94609,-0.08588
2532.98188,-0.08588
2532.01766,-0.08581
2531.05345,-0.08575
2530.08924,-0.08576
2529.12503,-0.08581
2528.16082,-0.08581
2527.19661,-0.08576
2526.2324,-0.08577
2525.26819,-0.08584
2524.30398,-0.08586
2523.33977,-0.08584
2522.37556,-0.08584
2521.41135,-0.08585
2520.44713,-0.08584
2519.48292,-0.0858
2518.51871,-0.08576
2517.5545,-0.08574
2516.59029,-0.08574
2515.62608,-0.08572
2514.66187,-0.08569
2513.69766,-0.08566
2512.73345,-0.08572
2511.76924,-0.08585
2510.80503,-0.08594
2509.84082,-0.08593
2508.8766,-0.08583
2507.91239,-0.0857
2506.94818,-0.08562
2505.98397,-0.08563
2505.01976,-0.08566
2504.05555,-0.08568
2503.09134,-0.0857
2502.12713,-0.08572
2501.16292,-0.08573
2500.19871,-0.08571
2499.2345,-0.08566
2498.27029,-0.08561
2497.30607,-0.08559
2496.34186,-0.08562
2495.37765,-0.08569
2494.41344,-0.08572
2493.44923,-0.08568
2492.48502,-0.08566
2491.52081,-0.0857
2490.5566,-0.08571
2489.59239,-0.08568
2488.62818,-0.08566
2487.66397,-0.08565
2486.69976,-0.08568
2485.73554,-0.08574
2484.77133,-0.08575
2483.80712,-0.0857
2482.84291,-0.08567
2481.8787,-0.08569
2480.91449,-0.08574
2479.95028,-0.08575
2478.98607,-0.08573
2478.02186,-0.08571
2477.05765,-0.08568
2476.09344,-0.08566
2475.12923,-0.08569
2474.16501,-0.0857
2473.2008,-0.08566
2472.23659,-0.08566
2471.27238,-0.08569
2470.30817,-0.08572
2469.34396,-0.08572
2468.37975,-0.08572
2467.41554,-0.08573
2466.45133,-0.08576
2465.48712,-0.08582
2464.52291,-0.08584
2463.5587,-0.08577
2462.59448,-0.08564
2461.63027,-0.08555
2460.66606,-0.08553
2459.70185,-0.08556
2458.73764,-0.08554
2457.77343,-0.08551
2456.80922,-0.08551
2455.84501,-0.08557
2454.8808,-0.08563
2453.91659,-0.08566
2452.95238,-0.08566
2451.98816,-0.0857
2451.02395,-0.08575
2450.05974,-0.08575
2449.09553,-0.08573
2448.13132,-0.0857
2447.16711,-0.08563
2446.2029,-0.08553
2445.23869,-0.08547
2444.27448,-0.08546
2443.31027,-0.08547
2442.34606,-0.08548
2441.38185,-0.08551
2440.41763,-0.08557
2439.45342,-0.08559
2438.48921,-0.08555
2437.525,-0.08553
2436.56079,-0.08558
2435.59658,-0.08564
2434.63237,-0.08573
2433.66816,-0.08577
2432.70395,-0.08572
2431.73974,-0.08563
2430.77553,-0.08556
2429.81132,-0.08549
2428.8471,-0.08547
2427.88289,-0.0855
2426.91868,-0.08551
2425.95447,-0.08548
2424.99026,-0.08546
2424.02605,-0.08548
2423.06184,-0.08549
2422.09763,-0.08545
2421.13342,-0.08544
2420.16921,-0.08546
2419.205,-0.08544
2418.24079,-0.0854
2417.27657,-0.08537
2416.31236,-0.08529
2415.34815,-0.08523
2414.38394,-0.08527
2413.41973,-0.08534
2412.45552,-0.08532
2411.49131,-0.08526
2410.5271,-0.08527
2409.56289,-0.0853
2408.59868,-0.08524
2407.63447,-0.08515
2406.67026,-0.08517
2405.70604,-0.08523
2404.74183,-0.08524
2403.77762,-0.08522
2402.81341,-0.08521
2401.8492,-0.08523
2400.88499,-0.08524
2399.92078,-0.08536
2398.95657,-0.0854
2397.99236,-0.08533
2397.02815,-0.0852
2396.06394,-0.08507
2395.09973,-0.08495
2394.13551,-0.08482
2393.1713,-0.08471
2392.20709,-0.08461
2391.24288,-0.08452
2390.27867,-0.08441
2389.31446,-0.08429
2388.35025,-0.08415
2387.38604,-0.08399
2386.42183,-0.08383
2385.45762,-0.0837
2384.49341,-0.08365
2383.5292,-0.08373
2382.56498,-0.08392
2381.60077,-0.08414
2380.63656,-0.08431
2379.67235,-0.08433
2378.70814,-0.08418
2377.74393,-0.08401
2376.77972,-0.08396
2375.81551,-0.08402
2374.8513,-0.08409
2373.88709,-0.08403
2372.92288,-0.08378
2371.95867,-0.08341
2370.99445,-0.08307
2370.03024,-0.08296
2369.06603,-0.08306
2368.10182,-0.08324
2367.13761,-0.08343
2366.1734,-0.08368
2365.20919,-0.08405
2364.24498,-0.08443
2363.28077,-0.0846
2362.31656,-0.08457
2361.35235,-0.08448
2360.38814,-0.08438
2359.42392,-0.08433
2358.45971,-0.0847
2357.4955,-0.08576
2356.53129,-0.08688
2355.56708,-0.08727
2354.60287,-0.08709
2353.63866,-0.08704
2352.67445,-0.08703
2351.71024,-0.0865
2350.74603,-0.08571
2349.78182,-0.08553
2348.81761,-0.0862
2347.85339,-0.08713
2346.88918,-0.08768
2345.92497,-0.08762
2344.96076,-0.08723
2343.99655,-0.08692
2343.03234,-0.0868
2342.06813,-0.08661
2341.10392,-0.08608
2340.13971,-0.08535
2339.1755,-0.08477
2338.21129,-0.08456
2337.24708,-0.08466
2336.28286,-0.08487
2335.31865,-0.0851
2334.35444,-0.08545
2333.39023,-0.08589
2332.42602,-0.08619
2331.46181,-0.08616
2330.4976,-0.08589
2329.53339,-0.0857
2328.56918,-0.08571
2327.60497,-0.08578
2326.64076,-0.08574
2325.67654,-0.08565
2324.71233,-0.08555
2323.74812,-0.08546
2322.78391,-0.08546
2321.8197,-0.08571
2320.85549,-0.0861
2319.89128,-0.08633
2318.92707,-0.08628
2317.96286,-0.08604
2316.99865,-0.08576
2316.03444,-0.08556
2315.07023,-0.08549
2314.10601,-0.08552
2313.1418,-0.08553
2312.17759,-0.08543
2311.21338,-0.08526
2310.24917,-0.08518
2309.28496,-0.08534
2308.32075,-0.08559
2307.35654,-0.08568
2306.39233,-0.08552
2305.42812,-0.08526
2304.46391,-0.08512
2303.4997,-0.08515
2302.53548,-0.08525
2301.57127,-0.08529
2300.60706,-0.08525
2299.64285,-0.08513
2298.67864,-0.08503
2297.71443,-0.08503
2296.75022,-0.08512
2295.78601,-0.08523
2294.8218,-0.08535
2293.85759,-0.08542
2292.89338,-0.08537
2291.92917,-0.08524
2290.96495,-0.08512
2290.00074,-0.08507
2289.03653,-0.0851
2288.07232,-0.08513
2287.10811,-0.08511
2286.1439,-0.08506
2285.17969,-0.08498
2284.21548,-0.08492
2283.25127,-0.08492
2282.28706,-0.08496
2281.32285,-0.08497
2280.35864,-0.08494
2279.39442,-0.0849
2278.43021,-0.08487
2277.466,-0.08484
2276.50179,-0.0848
2275.53758,-0.08476
2274.57337,-0.0847
2273.60916,-0.08465
2272.64495,-0.08466
2271.68074,-0.08469
2270.71653,-0.08472
2269.75232,-0.08474
2268.78811,-0.08471
2267.82389,-0.08465
2266.85968,-0.0846
2265.89547,-0.08455
2264.93126,-0.0845
2263.96705,-0.08449
2263.00284,-0.08452
2262.03863,-0.08456
2261.07442,-0.08454
2260.11021,-0.08445
2259.146,-0.08439
2258.18179,-0.08437
2257.21758,-0.08437
2256.25336,-0.08435
2255.28915,-0.0843
2254.32494,-0.08423
2253.36073,-0.0842
2252.39652,-0.08422
2251.43231,-0.08419
2250.4681,-0.08425
2249.50389,-0.08469
2248.53968,-0.08467
2247.57547,-0.08464
2246.61126,-0.08452
2245.64705,-0.08441
2244.68283,-0.08442
2243.71862,-0.08447
2242.75441,-0.08442
2241.7902,-0.08432
2240.82599,-0.08429
2239.86178,-0.08433
2238.89757,-0.08433
2237.93336,-0.08427
2236.96915,-0.08418
2236.00494,-0.08412
2235.04073,-0.08409
2234.07652,-0.08407
2233.1123,-0.08406
2232.14809,-0.08404
2231.18388,-0.08401
2230.21967,-0.08403
2229.25546,-0.08406
2228.29125,-0.08404
2227.32704,-0.08396
2226.36283,-0.08389
2225.39862,-0.08387
2224.43441,-0.08387
2223.4702,-0.08384
2222.50599,-0.08382
2221.54177,-0.08383
2220.57756,-0.08384
2219.61335,-0.08383
2218.64914,-0.08383
2217.68493,-0.08384
2216.72072,-0.08384
2215.75651,-0.08382
2214.7923,-0.08379
2213.82809,-0.08378
2212.86388,-0.08372
2211.89967,-0.08363
2210.93546,-0.08357
2209.97124,-0.08362
2209.00703,-0.08372
2208.04282,-0.08373
2207.07861,-0.08366
2206.1144,-0.08361
2205.15019,-0.08359
2204.18598,-0.08355
2203.22177,-0.08348
2202.25756,-0.08343
2201.29335,-0.08343
2200.32914,-0.08346
2199.36492,-0.08351
2198.40071,-0.08354
2197.4365,-0.08353
2196.47229,-0.0835
2195.50808,-0.08351
2194.54387,-0.08354
2193.57966,-0.08352
2192.61545,-0.08349
2191.65124,-0.08346
2190.68703,-0.08338
2189.72282,-0.08334
2188.75861,-0.08337
2187.79439,-0.08343
2186.83018,-0.08344
2185.86597,-0.08341
2184.90176,-0.0834
2183.93755,-0.08341
2182.97334,-0.08339
2182.00913,-0.08333
2181.04492,-0.08326
2180.08071,-0.08322
2179.1165,-0.08325
2178.15229,-0.08328
2177.18808,-0.08329
2176.22386,-0.08328
2175.25965,-0.08324
2174.29544,-0.08322
2173.33123,-0.08326
2172.36702,-0.08331
2171.40281,-0.08331
2170.4386,-0.08328
2169.47439,-0.08326
2168.51018,-0.08327
2167.54597,-0.08329
2166.58176,-0.08329
2165.61755,-0.08329
2164.65333,-0.08329
2163.68912,-0.08329
2162.72491,-0.08329
2161.7607,-0.08328
2160.79649,-0.08325
2159.83228,-0.08323
2158.86807,-0.08323
2157.90386,-0.08324
2156.93965,-0.08323
2155.97544,-0.0832
2155.01123,-0.08315
2154.04702,-0.08312
2153.0828,-0.08314
2152.11859,-0.08318
2151.15438,-0.08321
2150.19017,-0.08325
2149.22596,-0.08327
2148.26175,-0.08322
2147.29754,-0.08313
2146.33333,-0.08307
2145.36912,-0.0831
2144.40491,-0.08316
2143.4407,-0.08316
2142.47649,-0.08312
2141.51227,-0.08309
2140.54806,-0.0831
2139.58385,-0.0831
2138.61964,-0.08309
2137.65543,-0.08311
2136.69122,-0.08316
2135.72701,-0.08318
2134.7628,-0.08316
2133.79859,-0.08312
2132.83438,-0.08311
2131.87017,-0.08311
2130.90596,-0.08311
2129.94174,-0.08313
2128.97753,-0.08314
2128.01332,-0.08315
2127.04911,-0.08316
2126.0849,-0.08315
2125.12069,-0.08315
2124.15648,-0.08318
2123.19227,-0.08322
2122.22806,-0.08326
2121.26385,-0.08329
2120.29964,-0.0833
2119.33543,-0.08329
2118.37121,-0.08324
2117.407,-0.08316
2116.44279,-0.0831
2115.47858,-0.08312
2114.51437,-0.08317
2113.55016,-0.0832
2112.58595,-0.08323
2111.62174,-0.08327
2110.65753,-0.08328
2109.69332,-0.08325
2108.72911,-0.08327
2107.7649,-0.08333
2106.80068,-0.08336
2105.83647,-0.08335
2104.87226,-0.08336
2103.90805,-0.08339
2102.94384,-0.08339
2101.97963,-0.08335
2101.01542,-0.08331
2100.05121,-0.08333
2099.087,-0.08338
2098.12279,-0.08343
2097.15858,-0.08346
2096.19437,-0.08347
2095.23015,-0.08348
2094.26594,-0.08348
2093.30173,-0.08348
2092.33752,-0.08349
2091.37331,-0.08353
2090.4091,-0.08357
2089.44489,-0.08358
2088.48068,-0.08355
2087.51647,-0.08356
2086.55226,-0.0836
2085.58805,-0.08365
2084.62384,-0.08364
2083.65962,-0.08365
2082.69541,-0.08373
2081.7312,-0.08379
2080.76699,-0.08375
2079.80278,-0.08366
2078.83857,-0.0837
2077.87436,-0.08382
2076.91015,-0.08387
2075.94594,-0.08379
2074.98173,-0.08371
2074.01752,-0.08368
2073.05331,-0.08369
2072.08909,-0.08369
2071.12488,-0.08371
2070.16067,-0.08375
2069.19646,-0.08377
2068.23225,-0.08376
2067.26804,-0.08383
2066.30383,-0.08395
2065.33962,-0.08396
2064.37541,-0.08381
2063.4112,-0.08369
2062.44699,-0.08373
2061.48277,-0.08379
2060.51856,-0.08377
2059.55435,-0.08376
2058.59014,-0.0838
2057.62593,-0.08385
2056.66172,-0.08389
2055.69751,-0.08389
2054.7333,-0.08388
2053.76909,-0.08391
2052.80488,-0.08393
2051.84067,-0.08391
2050.87646,-0.08389
2049.91224,-0.08388
2048.94803,-0.08388
2047.98382,-0.08388
2047.01961,-0.08388
2046.0554,-0.08392
2045.09119,-0.084
2044.12698,-0.08401
2043.16277,-0.08395
2042.19856,-0.08391
2041.23435,-0.08387
2040.27014,-0.08379
2039.30593,-0.08375
2038.34171,-0.08376
2037.3775,-0.08378
2036.41329,-0.08383
2035.44908,-0.08393
2034.48487,-0.08401
2033.52066,-0.08399
2032.55645,-0.08392
2031.59224,-0.08389
2030.62803,-0.08393
2029.66382,-0.08398
2028.69961,-0.08403
2027.7354,-0.08404
2026.77118,-0.084
2025.80697,-0.08392
2024.84276,-0.0839
2023.87855,-0.08391
2022.91434,-0.08389
2021.95013,-0.08387
2020.98592,-0.08394
2020.02171,-0.08409
2019.0575,-0.08424
2018.09329,-0.08436
2017.12908,-0.08435
2016.16487,-0.08418
2015.20065,-0.08402
2014.23644,-0.08401
2013.27223,-0.08406
2012.30802,-0.08411
2011.34381,-0.08415
2010.3796,-0.08414
2009.41539,-0.0841
2008.45118,-0.08408
2007.48697,-0.08408
2006.52276,-0.08409
2005.55855,-0.08409
2004.59434,-0.08409
2003.63012,-0.08406
2002.66591,-0.08402
2001.7017,-0.08401
2000.73749,-0.08407
1999.77328,-0.08418
1998.80907,-0.08424
1997.84486,-0.08419
1996.88065,-0.08407
1995.91644,-0.084
1994.95223,-0.08407
1993.98802,-0.08432
1993.02381,-0.08452
1992.05959,-0.08428
1991.09538,-0.08388
1990.13117,-0.08393
1989.16696,-0.08423
1988.20275,-0.08427
1987.23854,-0.08411
1986.27433,-0.08405
1985.31012,-0.0841
1984.34591,-0.08415
1983.3817,-0.08418
1982.41749,-0.08422
1981.45328,-0.08423
1980.48906,-0.08419
1979.52485,-0.08415
1978.56064,-0.08415
1977.59643,-0.08416
1976.63222,-0.08415
1975.66801,-0.08413
1974.7038,-0.08413
1973.73959,-0.08413
1972.77538,-0.08414
1971.81117,-0.08417
1970.84696,-0.08422
1969.88275,-0.08431
1968.91853,-0.08445
1967.95432,-0.08448
1966.99011,-0.08427
1966.0259,-0.08402
1965.06169,-0.08399
1964.09748,-0.0841
1963.13327,-0.08418
1962.16906,-0.08417
1961.20485,-0.08409
1960.24064,-0.08403
1959.27643,-0.08406
1958.31222,-0.08412
1957.348,-0.08415
1956.38379,-0.08417
1955.41958,-0.08418
1954.45537,-0.08417
1953.49116,-0.08417
1952.52695,-0.0842
1951.56274,-0.08419
1950.59853,-0.08417
1949.63432,-0.08417
1948.67011,-0.0842
1947.7059,-0.08424
1946.74169,-0.08426
1945.77747,-0.08422
1944.81326,-0.08425
1943.84905,-0.08437
1942.88484,-0.08418
1941.92063,-0.08364
1940.95642,-0.08346
1939.99221,-0.08376
1939.028,-0.08406
1938.06379,-0.08415
1937.09958,-0.08414
1936.13537,-0.08415
1935.17115,-0.0842
1934.20694,-0.08426
1933.24273,-0.08425
1932.27852,-0.08416
1931.31431,-0.08406
1930.3501,-0.08402
1929.38589,-0.08403
1928.42168,-0.08404
1927.45747,-0.08401
1926.49326,-0.08396
1925.52905,-0.08399
1924.56484,-0.0842
1923.60062,-0.0844
1922.63641,-0.08429
1921.6722,-0.084
1920.70799,-0.08397
1919.74378,-0.08414
1918.77957,-0.08406
1917.81536,-0.08355
1916.85115,-0.08324
1915.88694,-0.08351
1914.92273,-0.08389
1913.95852,-0.08402
1912.99431,-0.08401
1912.03009,-0.08398
1911.06588,-0.0839
1910.10167,-0.08373
1909.13746,-0.08364
1908.17325,-0.08374
1907.20904,-0.08379
1906.24483,-0.08378
1905.28062,-0.08382
1904.31641,-0.08388
1903.3522,-0.08389
1902.38799,-0.08384
1901.42378,-0.08376
1900.45956,-0.08372
1899.49535,-0.08374
1898.53114,-0.08379
1897.56693,-0.08383
1896.60272,-0.08382
1895.63851,-0.08368
1894.6743,-0.08347
1893.71009,-0.08346
1892.74588,-0.08367
1891.78167,-0.08389
1890.81746,-0.08392
1889.85325,-0.08358
1888.88903,-0.08314
1887.92482,-0.08313
1886.96061,-0.08347
1885.9964,-0.08371
1885.03219,-0.08369
1884.06798,-0.08355
1883.10377,-0.08348
1882.13956,-0.08353
1881.17535,-0.08362
1880.21114,-0.08366
1879.24693,-0.08364
1878.28272,-0.08361
1877.3185,-0.0836
1876.35429,-0.08359
1875.39008,-0.08352
1874.42587,-0.08343
1873.46166,-0.08341
1872.49745,-0.08349
1871.53324,-0.08368
1870.56903,-0.08383
1869.60482,-0.08375
1868.64061,-0.08346
1867.6764,-0.08327
1866.71219,-0.08324
1865.74797,-0.08321
1864.78376,-0.08316
1863.81955,-0.08317
1862.85534,-0.08322
1861.89113,-0.08326
1860.92692,-0.08324
1859.96271,-0.08317
1858.9985,-0.0831
1858.03429,-0.08307
1857.07008,-0.08307
1856.10587,-0.08311
1855.14166,-0.08315
1854.17744,-0.08315
1853.21323,-0.08311
1852.24902,-0.08305
1851.28481,-0.08303
1850.3206,-0.08309
1849.35639,-0.08321
1848.39218,-0.08329
1847.42797,-0.08331
1846.46376,-0.08338
1845.49955,-0.08344
1844.53534,-0.08315
1843.57113,-0.08255
1842.60691,-0.0822
1841.6427,-0.08227
1840.67849,-0.08249
1839.71428,-0.0827
1838.75007,-0.08286
1837.78586,-0.08292
1836.82165,-0.08279
1835.85744,-0.08257
1834.89323,-0.08239
1833.92902,-0.08234
1832.96481,-0.08241
1832.0006,-0.08256
1831.03638,-0.08261
1830.07217,-0.08234
1829.10796,-0.08189
1828.14375,-0.08172
1827.17954,-0.0819
1826.21533,-0.08206
1825.25112,-0.08193
1824.28691,-0.08169
1823.3227,-0.08166
1822.35849,-0.08181
1821.39428,-0.08198
1820.43007,-0.08211
1819.46585,-0.08219
1818.50164,-0.08221
1817.53743,-0.08215
1816.57322,-0.08204
1815.60901,-0.08194
1814.6448,-0.0819
1813.68059,-0.08187
1812.71638,-0.08176
1811.75217,-0.08152
1810.78796,-0.0812
1809.82375,-0.081
1808.85953,-0.08106
1807.89532,-0.08124
1806.93111,-0.08135
1805.9669,-0.08136
1805.00269,-0.08134
1804.03848,-0.08132
1803.07427,-0.08133
1802.11006,-0.08139
1801.14585,-0.08149
1800.18164,-0.08147
1799.21743,-0.0812
1798.25322,-0.08083
1797.289,-0.08057
1796.32479,-0.08045
1795.36058,-0.08045
1794.39637,-0.08059
1793.43216,-0.0806
1792.46795,-0.08021
1791.50374,-0.07953
1790.53953,-0.07904
1789.57532,-0.07892
1788.61111,-0.07906
1787.6469,-0.07926
1786.68269,-0.07941
1785.71847,-0.07943
1784.75426,-0.07924
1783.79005,-0.07891
1782.82584,-0.0786
1781.86163,-0.07827
1780.89742,-0.07777
1779.93321,-0.07721
1778.969,-0.07684
1778.00479,-0.07667
1777.04058,-0.07651
1776.07637,-0.07623
1775.11216,-0.07595
1774.14794,-0.07579
1773.18373,-0.07541
1772.21952,-0.07438
1771.25531,-0.07295
1770.2911,-0.07182
1769.32689,-0.07105
1768.36268,-0.07015
1767.39847,-0.06895
1766.43426,-0.06779
1765.47005,-0.06687
1764.50584,-0.06602
1763.54163,-0.06499
1762.57741,-0.06351
1761.6132,-0.06155
1760.64899,-0.05968
1759.68478,-0.05838
1758.72057,-0.05744
1757.75636,-0.05641
1756.79215,-0.05513
1755.82794,-0.05386
1754.86373,-0.05302
1753.89952,-0.05261
1752.93531,-0.05241
1751.9711,-0.0521
1751.00688,-0.05152
1750.04267,-0.05081
1749.07846,-0.05014
1748.11425,-0.04951
1747.15004,-0.04906
1746.18583,-0.04903
1745.22162,-0.04937
1744.25741,-0.04974
1743.2932,-0.04992
1742.32899,-0.05008
1741.36478,-0.05042
1740.40057,-0.05071
1739.43635,-0.05081
1738.47214,-0.05104
1737.50793,-0.05169
1736.54372,-0.05258
1735.57951,-0.05323
1734.6153,-0.05318
1733.65109,-0.05261
1732.68688,-0.05244
1731.72267,-0.05298
1730.75846,-0.05366
1729.79425,-0.05405
1728.83004,-0.05426
1727.86582,-0.05454
1726.90161,-0.05488
1725.9374,-0.05515
1724.97319,-0.05528
1724.00898,-0.05525
1723.04477,-0.05517
1722.08056,-0.05526
1721.11635,-0.05559
1720.15214,-0.05599
1719.18793,-0.05607
1718.22372,-0.05547
1717.25951,-0.05445
1716.29529,-0.05371
1715.33108,-0.05322
1714.36687,-0.05255
1713.40266,-0.05177
1712.43845,-0.05119
1711.47424,-0.05073
1710.51003,-0.05001
1709.54582,-0.04891
1708.58161,-0.04757
1707.6174,-0.04607
1706.65319,-0.04423
1705.68898,-0.04207
1704.72476,-0.0399
1703.76055,-0.03806
1702.79634,-0.0367
1701.83213,-0.03534
1700.86792,-0.03278
1699.90371,-0.02873
1698.9395,-0.02507
1697.97529,-0.02295
1697.01108,-0.02124
1696.04687,-0.01857
1695.08266,-0.01509
1694.11845,-0.01219
1693.15423,-0.01011
1692.19002,-0.00811
1691.22581,-0.00554
1690.2616,-0.00218
1689.29739,0.00172
1688.33318,0.00564
1687.36897,0.00907
1686.40476,0.01212
1685.44055,0.01612
1684.47634,0.02275
1683.51213,0.0313
1682.54791,0.03833
1681.5837,0.04323
1680.61949,0.04779
1679.65528,0.05299
1678.69107,0.05835
1677.72686,0.06344
1676.76265,0.06887
1675.79844,0.07568
1674.83423,0.08376
1673.87002,0.09124
1672.90581,0.09731
1671.9416,0.10312
1670.97738,0.1098
1670.01317,0.11762
1669.04896,0.12635
1668.08475,0.13474
1667.12054,0.14149
1666.15633,0.14699
1665.19212,0.15229
1664.22791,0.15812
1663.2637,0.16501
1662.29949,0.17271
1661.33528,0.17989
1660.37107,0.18575
1659.40685,0.19065
1658.44264,0.19501
1657.47843,0.19884
1656.51422,0.20205
1655.55001,0.205
1654.5858,0.20859
1653.62159,0.21316
1652.65738,0.21696
1651.69317,0.21745
1650.72896,0.21545
1649.76475,0.21267
1648.80054,0.20993
1647.83632,0.20721
1646.87211,0.20417
1645.9079,0.20038
1644.94369,0.1957
1643.97948,0.19042
1643.01527,0.1846
1642.05106,0.17819
1641.08685,0.17132
1640.12264,0.16419
1639.15843,0.157
1638.19422,0.14964
1637.23001,0.14178
1636.26579,0.13291
1635.30158,0.12276
1634.33737,0.11229
1633.37316,0.10289
1632.40895,0.09445
1631.44474,0.08629
1630.48053,0.07808
1629.51632,0.06981
1628.55211,0.06141
1627.5879,0.05297
1626.62369,0.04506
1625.65948,0.03806
1624.69526,0.0317
1623.73105,0.02546
1622.76684,0.01918
1621.80263,0.0132
1620.83842,0.00778
1619.87421,0.00287
1618.91,-0.00162
1617.94579,-0.00584
1616.98158,-0.00995
1616.01737,-0.01394
1615.05316,-0.01764
1614.08895,-0.021
1613.12473,-0.02409
1612.16052,-0.02695
1611.19631,-0.0296
1610.2321,-0.03203
1609.26789,-0.03426
1608.30368,-0.0363
1607.33947,-0.03823
1606.37526,-0.04012
1605.41105,-0.04197
1604.44684,-0.04374
1603.48263,-0.04536
1602.51842,-0.04686
1601.5542,-0.04826
1600.58999,-0.04958
1599.62578,-0.05086
1598.66157,-0.05218
1597.69736,-0.05355
1596.73315,-0.05494
1595.76894,-0.05628
1594.80473,-0.05747
1593.84052,-0.05851
1592.87631,-0.05945
1591.9121,-0.0604
1590.94789,-0.06138
1589.98367,-0.06237
1589.01946,-0.0633
1588.05525,-0.06414
1587.09104,-0.06493
1586.12683,-0.06566
1585.16262,-0.06634
1584.19841,-0.06697
1583.2342,-0.06753
1582.26999,-0.06804
1581.30578,-0.06851
1580.34157,-0.06901
1579.37736,-0.06963
1578.41314,-0.07036
1577.44893,-0.07091
1576.48472,-0.07087
1575.52051,-0.07036
1574.5563,-0.07009
1573.59209,-0.07035
1572.62788,-0.07093
1571.66367,-0.07145
1570.69946,-0.07148
1569.73525,-0.07084
1568.77104,-0.07009
1567.80683,-0.07006
1566.84261,-0.07059
1565.8784,-0.07097
1564.91419,-0.07091
1563.94998,-0.07079
1562.98577,-0.07117
1562.02156,-0.07213
1561.05735,-0.0732
1560.09314,-0.07341
1559.12893,-0.07194
1558.16472,-0.06946
1557.20051,-0.06825
1556.2363,-0.06864
1555.27208,-0.06942
1554.30787,-0.06967
1553.34366,-0.06955
1552.37945,-0.06958
1551.41524,-0.06978
1550.45103,-0.06978
1549.48682,-0.0695
1548.52261,-0.0693
1547.5584,-0.0694
1546.59419,-0.06962
1545.62998,-0.06965
1544.66576,-0.06948
1543.70155,-0.06951
1542.73734,-0.06984
1541.77313,-0.0701
1540.80892,-0.06985
1539.84471,-0.06894
1538.8805,-0.06774
1537.91629,-0.06722
1536.95208,-0.06758
1535.98787,-0.06827
1535.02366,-0.06867
1534.05945,-0.06849
1533.09523,-0.06801
1532.13102,-0.06791
1531.16681,-0.06843
1530.2026,-0.06925
1529.23839,-0.06994
1528.27418,-0.07022
1527.30997,-0.07016
1526.34576,-0.07012
1525.38155,-0.07031
1524.41734,-0.07073
1523.45313,-0.07118
1522.48892,-0.07113
1521.5247,-0.07032
1520.56049,-0.06943
1519.59628,-0.06944
1518.63207,-0.07013
1517.66786,-0.0706
1516.70365,-0.0704
1515.73944,-0.07005
1514.77523,-0.07006
1513.81102,-0.07042
1512.84681,-0.07076
1511.8826,-0.07082
1510.91839,-0.07065
1509.95417,-0.07031
1508.98996,-0.06965
1508.02575,-0.0684
1507.06154,-0.06621
1506.09733,-0.06312
1505.13312,-0.06042
1504.16891,-0.05889
1503.2047,-0.05795
1502.24049,-0.05676
1501.27628,-0.05503
1500.31207,-0.05288
1499.34786,-0.05043
1498.38364,-0.04784
1497.41943,-0.04549
1496.45522,-0.04357
1495.49101,-0.04222
1494.5268,-0.04178
1493.56259,-0.04222
1492.59838,-0.04312
1491.63417,-0.04406
1490.66996,-0.04493
1489.70575,-0.04603
1488.74154,-0.0478
1487.77733,-0.05009
1486.81311,-0.05245
1485.8489,-0.05447
1484.88469,-0.05604
1483.92048,-0.05716
1482.95627,-0.05784
1481.99206,-0.05805
1481.02785,-0.05777
1480.06364,-0.0571
1479.09943,-0.05626
1478.13522,-0.0553
1477.17101,-0.05396
1476.2068,-0.05203
1475.24258,-0.04974
1474.27837,-0.04721
1473.31416,-0.04369
1472.34995,-0.03858
1471.38574,-0.03276
1470.42153,-0.02744
1469.45732,-0.02255
1468.49311,-0.01743
1467.5289,-0.01192
1466.56469,-0.00615
1465.60048,-0.00013
1464.63627,0.00586
1463.67205,0.01051
1462.70784,0.01276
1461.74363,0.01277
1460.77942,0.01117
1459.81521,0.00852
1458.851,0.00532
1457.88679,0.0019
1456.92258,-0.00166
1455.95837,-0.00521
1454.99416,-0.0081
1454.02995,-0.00988
1453.06574,-0.01046
1452.10152,-0.00983
1451.13731,-0.00813
1450.1731,-0.00573
1449.20889,-0.00273
1448.24468,0.00116
1447.28047,0.00593
1446.31626,0.01086
1445.35205,0.01533
1444.38784,0.01927
1443.42363,0.02268
1442.45942,0.02545
1441.49521,0.0274
1440.53099,0.02842
1439.56678,0.0285
1438.60257,0.02766
1437.63836,0.02598
1436.67415,0.02354
1435.70994,0.02059
1434.74573,0.01754
1433.78152,0.01469
1432.81731,0.01226
1431.8531,0.01052
1430.88889,0.00981
1429.92468,0.0105
1428.96046,0.01261
1427.99625,0.01565
1427.03204,0.01905
1426.06783,0.02241
1425.10362,0.02536
1424.13941,0.02756
1423.1752,0.02847
1422.21099,0.02761
1421.24678,0.02491
1420.28257,0.02041
1419.31836,0.01415
1418.35414,0.00669
1417.38993,-0.00092
1416.42572,-0.00813
1415.46151,-0.01469
1414.4973,-0.02047
1413.53309,-0.02552
1412.56888,-0.02991
1411.60467,-0.03364
1410.64046,-0.03677
1409.67625,-0.03941
1408.71204,-0.04169
1407.74783,-0.04361
1406.78361,-0.04511
1405.8194,-0.04618
1404.85519,-0.04695
1403.89098,-0.04763
1402.92677,-0.04834
1401.96256,-0.04905
1400.99835,-0.04965
1400.03414,-0.05
1399.06993,-0.05
1398.10572,-0.04988
1397.14151,-0.04997
1396.1773,-0.05015
1395.21308,-0.04991
1394.24887,-0.04919
1393.28466,-0.0485
1392.32045,-0.04807
1391.35624,-0.04773
1390.39203,-0.04732
1389.42782,-0.04678
1388.46361,-0.04591
1387.4994,-0.04446
1386.53519,-0.04256
1385.57098,-0.04079
1384.60677,-0.03934
1383.64255,-0.03799
1382.67834,-0.03652
1381.71413,-0.03491
1380.74992,-0.0332
1379.78571,-0.03139
1378.8215,-0.02951
1377.85729,-0.02768
1376.89308,-0.02611
1375.92887,-0.02495
1374.96466,-0.02423
1374.00045,-0.0239
1373.03624,-0.02394
1372.07202,-0.02442
1371.10781,-0.02545
1370.1436,-0.02699
1369.17939,-0.02897
1368.21518,-0.03131
1367.25097,-0.03394
1366.28676,-0.03675
1365.32255,-0.03968
1364.35834,-0.04259
1363.39413,-0.04514
1362.42992,-0.04695
1361.46571,-0.04822
1360.50149,-0.0495
1359.53728,-0.05092
1358.57307,-0.05217
1357.60886,-0.05304
1356.64465,-0.05362
1355.68044,-0.05401
1354.71623,-0.05424
1353.75202,-0.05434
1352.78781,-0.05441
1351.8236,-0.05449
1350.85939,-0.05458
1349.89518,-0.05464
1348.93096,-0.05463
1347.96675,-0.05452
1347.00254,-0.05437
1346.03833,-0.05421
1345.07412,-0.05406
1344.10991,-0.05391
1343.1457,-0.05384
1342.18149,-0.054
1341.21728,-0.05427
1340.25307,-0.0542
1339.28886,-0.05355
1338.32465,-0.05272
1337.36043,-0.05209
1336.39622,-0.05168
1335.43201,-0.05143
1334.4678,-0.05114
1333.50359,-0.05056
1332.53938,-0.04968
1331.57517,-0.04861
1330.61096,-0.04744
1329.64675,-0.04618
1328.68254,-0.04473
1327.71833,-0.04305
1326.75412,-0.04124
1325.7899,-0.0394
1324.82569,-0.03749
1323.86148,-0.03548
1322.89727,-0.03352
1321.93306,-0.03181
1320.96885,-0.03043
1320.00464,-0.02931
1319.04043,-0.0284
1318.07622,-0.02779
1317.11201,-0.02764
1316.1478,-0.02802
1315.18359,-0.02882
1314.21937,-0.02992
1313.25516,-0.03115
1312.29095,-0.03221
1311.32674,-0.0329
1310.36253,-0.03326
1309.39832,-0.0334
1308.43411,-0.03321
1307.4699,-0.0326
1306.50569,-0.03154
1305.54148,-0.02991
1304.57727,-0.02757
1303.61306,-0.0245
1302.64884,-0.02067
1301.68463,-0.016
1300.72042,-0.01047
1299.75621,-0.00396
1298.792,0.00371
1297.82779,0.01254
1296.86358,0.02233
1295.89937,0.03261
1294.93516,0.04282
1293.97095,0.05248
1293.00674,0.06115
1292.04252,0.0683
1291.07831,0.07349
1290.1141,0.07644
1289.14989,0.0771
1288.18568,0.07572
1287.22147,0.07273
1286.25726,0.06852
1285.29305,0.06355
1284.32884,0.05837
1283.36463,0.05346
1282.40042,0.04924
1281.43621,0.04595
1280.47199,0.04369
1279.50778,0.04246
1278.54357,0.04206
1277.57936,0.04217
1276.61515,0.04239
1275.65094,0.04235
1274.68673,0.04176
1273.72252,0.04042
1272.75831,0.03822
1271.7941,0.03522
1270.82989,0.03167
1269.86568,0.02777
1268.90146,0.02367
1267.93725,0.01958
1266.97304,0.01573
1266.00883,0.01228
1265.04462,0.00935
1264.08041,0.00695
1263.1162,0.00494
1262.15199,0.00321
1261.18778,0.00174
1260.22357,0.00053
1259.25936,-0.00052
1258.29515,-0.00148
1257.33093,-0.00235
1256.36672,-0.00316
1255.40251,-0.00401
1254.4383,-0.00491
1253.47409,-0.00582
1252.50988,-0.00672
1251.54567,-0.00762
1250.58146,-0.00856
1249.61725,-0.00952
1248.65304,-0.01045
1247.68883,-0.01133
1246.72462,-0.01218
1245.7604,-0.01292
1244.79619,-0.0135
1243.83198,-0.01396
1242.86777,-0.01437
1241.90356,-0.0147
1240.93935,-0.01487
1239.97514,-0.01491
1239.01093,-0.01482
1238.04672,-0.01463
1237.08251,-0.0144
1236.1183,-0.01413
1235.15409,-0.01378
1234.18987,-0.01347
1233.22566,-0.01328
1232.26145,-0.01318
1231.29724,-0.01321
1230.33303,-0.01337
1229.36882,-0.01367
1228.40461,-0.0141
1227.4404,-0.01466
1226.47619,-0.01525
1225.51198,-0.01584
1224.54777,-0.01645
1223.58356,-0.01713
1222.61934,-0.01781
1221.65513,-0.0184
1220.69092,-0.01897
1219.72671,-0.01964
1218.7625,-0.02042
1217.79829,-0.02132
1216.83408,-0.02234
1215.86987,-0.02344
1214.90566,-0.02461
1213.94145,-0.02581
1212.97724,-0.027
1212.01303,-0.02818
1211.04881,-0.02941
1210.0846,-0.03067
1209.12039,-0.03186
1208.15618,-0.03293
1207.19197,-0.03398
1206.22776,-0.03504
1205.26355,-0.03604
1204.29934,-0.03695
1203.33513,-0.03775
1202.37092,-0.03852
1201.40671,-0.03929
1200.4425,-0.03997
1199.47828,-0.04056
1198.51407,-0.04114
1197.54986,-0.04168
1196.58565,-0.04207
1195.62144,-0.04235
1194.65723,-0.04258
1193.69302,-0.04281
1192.72881,-0.04292
1191.7646,-0.04284
1190.80039,-0.04269
1189.83618,-0.0425
1188.87197,-0.04212
1187.90775,-0.04147
1186.94354,-0.04071
1185.97933,-0.04007
1185.01512,-0.03947
1184.05091,-0.03873
1183.0867,-0.03778
1182.12249,-0.03665
1181.15828,-0.03536
1180.19407,-0.03401
1179.22986,-0.03269
1178.26565,-0.03141
1177.30144,-0.03016
1176.33722,-0.02894
1175.37301,-0.02785
1174.4088,-0.02696
1173.44459,-0.02609
1172.48038,-0.02524
1171.51617,-0.02459
1170.55196,-0.02412
1169.58775,-0.02375
1168.62354,-0.02346
1167.65933,-0.02325
1166.69512,-0.02316
1165.73091,-0.02327
1164.76669,-0.02347
1163.80248,-0.02372
1162.83827,-0.02408
1161.87406,-0.02446
1160.90985,-0.02472
1159.94564,-0.02497
1158.98143,-0.02526
1158.01722,-0.0255
1157.05301,-0.02571
1156.0888,-0.02597
1155.12459,-0.02626
1154.16037,-0.02663
1153.19616,-0.02704
1152.23195,-0.02743
1151.26774,-0.02783
1150.30353,-0.02825
1149.33932,-0.02867
1148.37511,-0.02906
1147.4109,-0.02942
1146.44669,-0.02982
1145.48248,-0.0302
1144.51827,-0.03046
1143.55406,-0.03067
1142.58984,-0.03082
1141.62563,-0.03088
1140.66142,-0.0309
1139.69721,-0.03082
1138.733,-0.03057
1137.76879,-0.03033
1136.80458,-0.03012
1135.84037,-0.0297
1134.87616,-0.02906
1133.91195,-0.02846
1132.94774,-0.02786
1131.98353,-0.02717
1131.01931,-0.02655
1130.0551,-0.02603
1129.09089,-0.02533
1128.12668,-0.02428
1127.16247,-0.02308
1126.19826,-0.02195
1125.23405,-0.02092
1124.26984,-0.01998
1123.30563,-0.01889
1122.34142,-0.01756
1121.37721,-0.01635
1120.413,-0.01531
1119.44878,-0.01408
1118.48457,-0.01256
1117.52036,-0.01106
1116.55615,-0.00979
1115.59194,-0.00861
1114.62773,-0.00734
1113.66352,-0.00624
1112.69931,-0.00538
1111.7351,-0.00444
1110.77089,-0.00353
1109.80668,-0.00296
1108.84247,-0.0025
1107.87825,-0.00199
1106.91404,-0.00159
1105.94983,-0.00139
1104.98562,-0.00131
1104.02141,-0.00115
1103.0572,-0.00096
1102.09299,-0.00087
1101.12878,-0.00091
1100.16457,-0.00104
1099.20036,-0.00117
1098.23615,-0.00121
1097.27194,-0.00135
1096.30772,-0.00175
1095.34351,-0.00233
1094.3793,-0.00285
1093.41509,-0.00331
1092.45088,-0.00386
1091.48667,-0.00443
1090.52246,-0.00489
1089.55825,-0.00541
1088.59404,-0.00615
1087.62983,-0.00688
1086.66562,-0.00753
1085.70141,-0.00823
1084.73719,-0.00893
1083.77298,-0.00945
1082.80877,-0.00986
1081.84456,-0.01038
1080.88035,-0.011
1079.91614,-0.01158
1078.95193,-0.01207
1077.98772,-0.01263
1077.02351,-0.01328
1076.0593,-0.01387
1075.09509,-0.01434
1074.13088,-0.01481
1073.16666,-0.01535
1072.20245,-0.01598
1071.23824,-0.01668
1070.27403,-0.01742
1069.30982,-0.01809
1068.34561,-0.01872
1067.3814,-0.01943
1066.41719,-0.02028
1065.45298,-0.02113
1064.48877,-0.02187
1063.52456,-0.02254
1062.56035,-0.02328
1061.59613,-0.02423
1060.63192,-0.02535
1059.66771,-0.02648
1058.7035,-0.02761
1057.73929,-0.02886
1056.77508,-0.03034
1055.81087,-0.03196
1054.84666,-0.03351
1053.88245,-0.03498
1052.91824,-0.03647
1051.95403,-0.03786
1050.98982,-0.03914
1050.0256,-0.04041
1049.06139,-0.04164
1048.09718,-0.04273
1047.13297,-0.04366
1046.16876,-0.04454
1045.20455,-0.0455
1044.24034,-0.04651
1043.27613,-0.04742
1042.31192,-0.04818
1041.34771,-0.04885
1040.3835,-0.04942
1039.41929,-0.04988
1038.45507,-0.05031
1037.49086,-0.05068
1036.52665,-0.05087
1035.56244,-0.05091
1034.59823,-0.05091
1033.63402,-0.05093
1032.66981,-0.05076
1031.7056,-0.05039
1030.74139,-0.05004
1029.77718,-0.04971
1028.81297,-0.04917
1027.84875,-0.04843
1026.88454,-0.04756
1025.92033,-0.04664
1024.95612,-0.04565
1023.99191,-0.0445
1023.0277,-0.04319
1022.06349,-0.04194
1021.09928,-0.04085
1020.13507,-0.03993
1019.17086,-0.03918
1018.20665,-0.03877
1017.24244,-0.0388
1016.27822,-0.03917
1015.31401,-0.03976
1014.3498,-0.04046
1013.38559,-0.04121
1012.42138,-0.04219
1011.45717,-0.04335
1010.49296,-0.04431
1009.52875,-0.04504
1008.56454,-0.0458
1007.60033,-0.04646
1006.63612,-0.04681
1005.67191,-0.047
1004.70769,-0.04721
1003.74348,-0.04752
1002.77927,-0.04798
1001.81506,-0.04863
1000.85085,-0.04962
999.88664,-0.05093
998.92243,-0.0523
997.95822,-0.05357
996.99401,-0.0547
996.0298,-0.05548
995.06559,-0.05588
994.10138,-0.05615
993.13716,-0.05638
992.17295,-0.05645
991.20874,-0.0565
990.24453,-0.05677
989.28032,-0.05711
988.31611,-0.05736
987.3519,-0.05763
986.38769,-0.05788
985.42348,-0.058
984.45927,-0.05814
983.49506,-0.0586
982.53085,-0.05937
981.56663,-0.06022
980.60242,-0.06096
979.63821,-0.06159
978.674,-0.06233
977.70979,-0.06318
976.74558,-0.06392
975.78137,-0.06441
974.81716,-0.06481
973.85295,-0.0653
972.88874,-0.06568
971.92453,-0.06589
970.96032,-0.06624
969.9961,-0.06672
969.03189,-0.06704
968.06768,-0.0673
967.10347,-0.06764
966.13926,-0.06792
965.17505,-0.06808
964.21084,-0.06814
963.24663,-0.06827
962.28242,-0.06855
961.31821,-0.06867
960.354,-0.06855
959.38979,-0.0686
958.42557,-0.06875
957.46136,-0.06872
956.49715,-0.06871
955.53294,-0.06868
954.56873,-0.0684
953.60452,-0.06803
952.64031,-0.06772
951.6761,-0.06741
950.71189,-0.06708
949.74768,-0.06676
948.78347,-0.06644
947.81926,-0.066
946.85504,-0.06533
945.89083,-0.06442
944.92662,-0.06332
943.96241,-0.06217
942.9982,-0.06131
942.03399,-0.06074
941.06978,-0.06006
940.10557,-0.05914
939.14136,-0.05825
938.17715,-0.05753
937.21294,-0.05682
936.24873,-0.05601
935.28451,-0.05527
934.3203,-0.05488
933.35609,-0.05482
932.39188,-0.05491
931.42767,-0.05511
930.46346,-0.05559
929.49925,-0.05627
928.53504,-0.05666
927.57083,-0.05662
926.60662,-0.05646
925.64241,-0.05632
924.6782,-0.05627
923.71398,-0.05637
922.74977,-0.05652
921.78556,-0.05669
920.82135,-0.05695
919.85714,-0.05723
918.89293,-0.05748
917.92872,-0.05767
916.96451,-0.05764
916.0003,-0.05738
915.03609,-0.05715
914.07188,-0.05711
913.10767,-0.05719
912.14345,-0.05717
911.17924,-0.05696
910.21503,-0.05673
909.25082,-0.05658
908.28661,-0.05641
907.3224,-0.05619
906.35819,-0.05604
905.39398,-0.05598
904.42977,-0.05595
903.46556,-0.05591
902.50135,-0.0558
901.53713,-0.05571
900.57292,-0.05567
899.60871,-0.0555
898.6445,-0.05517
897.68029,-0.0549
896.71608,-0.05488
895.75187,-0.05511
894.78766,-0.05541
893.82345,-0.05565
892.85924,-0.05593
891.89503,-0.05637
890.93082,-0.05686
889.9666,-0.05715
889.00239,-0.05723
888.03818,-0.05751
887.07397,-0.05803
886.10976,-0.05838
885.14555,-0.05842
884.18134,-0.05822
883.21713,-0.05793
882.25292,-0.05776
881.28871,-0.05763
880.3245,-0.05743
879.36029,-0.05708
878.39607,-0.05659
877.43186,-0.05613
876.46765,-0.05564
875.50344,-0.05508
874.53923,-0.05461
873.57502,-0.05423
872.61081,-0.05373
871.6466,-0.0532
870.68239,-0.05275
869.71818,-0.05219
868.75397,-0.05144
867.78976,-0.05073
866.82554,-0.05005
865.86133,-0.04915
864.89712,-0.04812
863.93291,-0.04715
862.9687,-0.04617
862.00449,-0.04511
861.04028,-0.04412
860.07607,-0.04316
859.11186,-0.04208
858.14765,-0.04102
857.18344,-0.04015
856.21923,-0.03946
855.25501,-0.03894
854.2908,-0.03848
853.32659,-0.038
852.36238,-0.03747
851.39817,-0.0368
850.43396,-0.03617
849.46975,-0.03579
848.50554,-0.03556
847.54133,-0.03535
846.57712,-0.03523
845.61291,-0.0353
844.6487,-0.03549
843.68448,-0.03566
842.72027,-0.03586
841.75606,-0.03621
840.79185,-0.03668
839.82764,-0.03711
838.86343,-0.03752
837.89922,-0.03801
836.93501,-0.03848
835.9708,-0.03892
835.00659,-0.03941
834.04238,-0.03988
833.07817,-0.04015
832.11395,-0.04019
831.14974,-0.04018
830.18553,-0.04028
829.22132,-0.04045
828.25711,-0.0406
827.2929,-0.04075
826.32869,-0.04083
825.36448,-0.04078
824.40027,-0.04059
823.43606,-0.04029
822.47185,-0.0402
821.50764,-0.04044
820.54342,-0.04069
819.57921,-0.04068
818.615,-0.04056
817.65079,-0.04071
816.68658,-0.04094
815.72237,-0.04092
814.75816,-0.04083
813.79395,-0.04094
812.82974,-0.04112
811.86553,-0.0411
810.90132,-0.04096
809.93711,-0.0409
808.97289,-0.04079
808.00868,-0.04055
807.04447,-0.04042
806.08026,-0.04037
805.11605,-0.0402
804.15184,-0.03989
803.18763,-0.03959
802.22342,-0.03926
801.25921,-0.0388
800.295,-0.03826
799.33079,-0.03779
798.36658,-0.03735
797.40236,-0.03685
796.43815,-0.03623
795.47394,-0.03552
794.50973,-0.0348
793.54552,-0.03415
792.58131,-0.03363
791.6171,-0.03318
790.65289,-0.03268
789.68868,-0.03214
788.72447,-0.03158
787.76026,-0.03105
786.79605,-0.0307
785.83183,-0.03034
784.86762,-0.02984
783.90341,-0.02938
782.9392,-0.02905
781.97499,-0.02879
781.01078,-0.02857
780.04657,-0.02822
779.08236,-0.02769
778.11815,-0.02707
777.15394,-0.02634
776.18973,-0.02558
775.22551,-0.02496
774.2613,-0.02428
773.29709,-0.02348
772.33288,-0.02287
771.36867,-0.02245
770.40446,-0.0219
769.44025,-0.02122
768.47604,-0.02059
767.51183,-0.01993
766.54762,-0.01926
765.58341,-0.01869
764.6192,-0.01819
763.65498,-0.01759
762.69077,-0.01682
761.72656,-0.01601
760.76235,-0.01515
759.79814,-0.01411
758.83393,-0.01296
757.86972,-0.01182
756.90551,-0.0108
755.9413,-0.00987
754.97709,-0.00882
754.01288,-0.00768
753.04867,-0.00669
752.08445,-0.00587
751.12024,-0.00503
750.15603,-0.00414
749.19182,-0.00326
748.22761,-0.0024
747.2634,-0.00158
746.29919,-0.00086
745.33498,-0.00017
744.37077,0.00062
743.40656,0.00154
742.44235,0.00241
741.47814,0.00318
740.51392,0.00405
739.54971,0.00499
738.5855,0.00581
737.62129,0.00649
736.65708,0.00708
735.69287,0.00748
734.72866,0.00763
733.76445,0.00753
732.80024,0.00728
731.83603,0.00692
730.87182,0.00641
729.90761,0.00577
728.94339,0.00509
727.97918,0.00451
727.01497,0.00415
726.05076,0.00391
725.08655,0.00371
724.12234,0.00351
723.15813,0.00398
722.19392,0.00464
721.22971,0.00505
720.2655,0.00543
719.30129,0.00614
718.33708,0.00692
717.37286,0.00741
716.40865,0.00779
715.44444,0.00828
714.48023,0.0088
713.51602,0.00907
712.55181,0.00906
711.5876,0.00908
710.62339,0.00937
709.65918,0.00985
708.69497,0.01026
707.73076,0.01056
706.76655,0.0109
705.80233,0.01133
704.83812,0.01173
703.87391,0.01203
702.9097,0.01227
701.94549,0.01251
700.98128,0.01278
700.01707,0.01315
699.05286,0.01365
698.08865,0.01416
697.12444,0.01455
696.16023,0.01484
695.19602,0.01513
694.2318,0.01545
693.26759,0.0158
692.30338,0.01625
691.33917,0.01693
690.37496,0.01778
689.41075,0.01862
688.44654,0.01932
687.48233,0.01991
686.51812,0.02052
685.55391,0.02127
684.5897,0.02212
683.62549,0.02293
682.66127,0.02363
681.69706,0.02431
680.73285,0.02512
679.76864,0.0261
678.80443,0.02714
677.84022,0.0281
676.87601,0.02898
675.9118,0.0298
674.94759,0.03065
673.98338,0.03161
673.01917,0.03265
672.05496,0.03349
671.09074,0.03384
670.12653,0.03423
669.16232,0.03583
668.19811,0.03874
667.2339,0.0407
666.26969,0.04045
665.30548,0.03969
664.34127,0.03956
663.37706,0.0399
662.41285,0.04057
661.44864,0.04157
660.48443,0.04277
659.52021,0.04394
658.556,0.04499
657.59179,0.04591
656.62758,0.04674
655.66337,0.04755
654.69916,0.04845
653.73495,0.04949
652.77074,0.05054
651.80653,0.05138
650.84232,0.05186
649.87811,0.05203
