Wavenumber,Intensity
5500.82284,-0.04634
5499.85863,-0.04848
5498.89442,-0.05018
5497.93021,-0.05135
5496.966,-0.05113
5496.00179,-0.04835
5495.03757,-0.04382
5494.07336,-0.04075
5493.10915,-0.04269
5492.14494,-0.05064
5491.18073,-0.06
5490.21652,-0.06338
5489.25231,-0.05866
5488.2881,-0.04975
5487.32389,-0.04247
5486.35968,-0.04141
5485.39547,-0.04588
5484.43126,-0.04975
5483.46704,-0.04912
5482.50283,-0.04667
5481.53862,-0.04609
5480.57441,-0.04717
5479.6102,-0.04819
5478.64599,-0.04885
5477.68178,-0.04978
5476.71757,-0.05105
5475.75336,-0.05132
5474.78915,-0.04925
5473.82494,-0.04668
5472.86073,-0.04646
5471.89651,-0.04744
5470.9323,-0.04672
5469.96809,-0.04495
5469.00388,-0.04561
5468.03967,-0.0484
5467.07546,-0.04952
5466.11125,-0.04863
5465.14704,-0.04834
5464.18283,-0.04865
5463.21862,-0.04816
5462.25441,-0.04751
5461.2902,-0.04754
5460.32598,-0.04702
5459.36177,-0.04532
5458.39756,-0.04407
5457.43335,-0.04437
5456.46914,-0.04558
5455.50493,-0.04727
5454.54072,-0.04965
5453.57651,-0.05196
5452.6123,-0.05248
5451.64809,-0.05063
5450.68388,-0.04804
5449.71967,-0.04702
5448.75545,-0.04776
5447.79124,-0.04839
5446.82703,-0.04826
5445.86282,-0.04834
5444.89861,-0.04914
5443.9344,-0.05047
5442.97019,-0.05206
5442.00598,-0.05341
5441.04177,-0.05399
5440.07756,-0.05383
5439.11335,-0.0534
5438.14913,-0.05284
5437.18492,-0.05228
5436.22071,-0.05229
5435.2565,-0.05281
5434.29229,-0.05287
5433.32808,-0.05221
5432.36387,-0.05141
5431.39966,-0.05065
5430.43545,-0.05013
5429.47124,-0.05003
5428.50703,-0.05
5427.54282,-0.04991
5426.5786,-0.04982
5425.61439,-0.04945
5424.65018,-0.04883
5423.68597,-0.04834
5422.72176,-0.04806
5421.75755,-0.04772
5420.79334,-0.04718
5419.82913,-0.04688
5418.86492,-0.04724
5417.90071,-0.04783
5416.9365,-0.04806
5415.97229,-0.04792
5415.00807,-0.04768
5414.04386,-0.04722
5413.07965,-0.04631
5412.11544,-0.04543
5411.15123,-0.04512
5410.18702,-0.04504
5409.22281,-0.04503
5408.2586,-0.04557
5407.29439,-0.04655
5406.33018,-0.04722
5405.36597,-0.04729
5404.40176,-0.04709
5403.43754,-0.04683
5402.47333,-0.04636
5401.50912,-0.0458
5400.54491,-0.04566
5399.5807,-0.04618
5398.61649,-0.04688
5397.65228,-0.04704
5396.68807,-0.04658
5395.72386,-0.04602
5394.75965,-0.04575
5393.79544,-0.0456
5392.83123,-0.04542
5391.86701,-0.04558
5390.9028,-0.04626
5389.93859,-0.04684
5388.97438,-0.04684
5388.01017,-0.04642
5387.04596,-0.04591
5386.08175,-0.04537
5385.11754,-0.04493
5384.15333,-0.04491
5383.18912,-0.04529
5382.22491,-0.04566
5381.2607,-0.04588
5380.29648,-0.04602
5379.33227,-0.04608
5378.36806,-0.04617
5377.40385,-0.0463
5376.43964,-0.04605
5375.47543,-0.04535
5374.51122,-0.04476
5373.54701,-0.04475
5372.5828,-0.04522
5371.61859,-0.04557
5370.65438,-0.04538
5369.69017,-0.04489
5368.72595,-0.04456
5367.76174,-0.04444
5366.79753,-0.04439
5365.83332,-0.04459
5364.86911,-0.04525
5363.9049,-0.04582
5362.94069,-0.04567
5361.97648,-0.04501
5361.01227,-0.04454
5360.04806,-0.04459
5359.08385,-0.04501
5358.11964,-0.0456
5357.15542,-0.04615
5356.19121,-0.04656
5355.227,-0.0469
5354.26279,-0.04714
5353.29858,-0.04707
5352.33437,-0.04663
5351.37016,-0.04622
5350.40595,-0.04616
5349.44174,-0.04622
5348.47753,-0.04597
5347.51332,-0.0454
5346.54911,-0.04513
5345.58489,-0.04546
5344.62068,-0.04593
5343.65647,-0.04589
5342.69226,-0.04536
5341.72805,-0.04471
5340.76384,-0.0443
5339.79963,-0.04432
5338.83542,-0.04455
5337.87121,-0.04462
5336.907,-0.04461
5335.94279,-0.04479
5334.97858,-0.04511
5334.01436,-0.04546
5333.05015,-0.04564
5332.08594,-0.04541
5331.12173,-0.0448
5330.15752,-0.04416
5329.19331,-0.04383
5328.2291,-0.04401
5327.26489,-0.04454
5326.30068,-0.04487
5325.33647,-0.04476
5324.37226,-0.0445
5323.40805,-0.04429
5322.44383,-0.04411
5321.47962,-0.04397
5320.51541,-0.04389
5319.5512,-0.04383
5318.58699,-0.04365
5317.62278,-0.0433
5316.65857,-0.04291
5315.69436,-0.04265
5314.73015,-0.04262
5313.76594,-0.04292
5312.80173,-0.04349
5311.83752,-0.0439
5310.8733,-0.0438
5309.90909,-0.04339
5308.94488,-0.04309
5307.98067,-0.04298
5307.01646,-0.04289
5306.05225,-0.04278
5305.08804,-0.0428
5304.12383,-0.04295
5303.15962,-0.04307
5302.19541,-0.04314
5301.2312,-0.0433
5300.26698,-0.04354
5299.30277,-0.0437
5298.33856,-0.04382
5297.37435,-0.04398
5296.41014,-0.04405
5295.44593,-0.04395
5294.48172,-0.0439
5293.51751,-0.04401
5292.5533,-0.04412
5291.58909,-0.04409
5290.62488,-0.04375
5289.66067,-0.04296
5288.69645,-0.04211
5287.73224,-0.04183
5286.76803,-0.04217
5285.80382,-0.04266
5284.83961,-0.0429
5283.8754,-0.04272
5282.91119,-0.04236
5281.94698,-0.0422
5280.98277,-0.04229
5280.01856,-0.04229
5279.05435,-0.04211
5278.09014,-0.04207
5277.12592,-0.04219
5276.16171,-0.04221
5275.1975,-0.042
5274.23329,-0.04172
5273.26908,-0.04162
5272.30487,-0.04179
5271.34066,-0.04214
5270.37645,-0.0424
5269.41224,-0.04238
5268.44803,-0.04209
5267.48382,-0.04188
5266.51961,-0.042
5265.55539,-0.04227
5264.59118,-0.04236
5263.62697,-0.04212
5262.66276,-0.04173
5261.69855,-0.04162
5260.73434,-0.04174
5259.77013,-0.0417
5258.80592,-0.0415
5257.84171,-0.04135
5256.8775,-0.04144
5255.91329,-0.04176
5254.94908,-0.04202
5253.98486,-0.04187
5253.02065,-0.04154
5252.05644,-0.04146
5251.09223,-0.04164
5250.12802,-0.04195
5249.16381,-0.04229
5248.1996,-0.04234
5247.23539,-0.04189
5246.27118,-0.04151
5245.30697,-0.04181
5244.34276,-0.04231
5243.37855,-0.04216
5242.41433,-0.04155
5241.45012,-0.04124
5240.48591,-0.04137
5239.5217,-0.04159
5238.55749,-0.04172
5237.59328,-0.04181
5236.62907,-0.04189
5235.66486,-0.04199
5234.70065,-0.04217
5233.73644,-0.04239
5232.77223,-0.04242
5231.80802,-0.04213
5230.8438,-0.04168
5229.87959,-0.04144
5228.91538,-0.04163
5227.95117,-0.04201
5226.98696,-0.0423
5226.02275,-0.04227
5225.05854,-0.04162
5224.09433,-0.04072
5223.13012,-0.04043
5222.16591,-0.04074
5221.2017,-0.04113
5220.23749,-0.04147
5219.27327,-0.04181
5218.30906,-0.04192
5217.34485,-0.04177
5216.38064,-0.04167
5215.41643,-0.04181
5214.45222,-0.04192
5213.48801,-0.04189
5212.5238,-0.04191
5211.55959,-0.04203
5210.59538,-0.04218
5209.63117,-0.04228
5208.66696,-0.0421
5207.70274,-0.04159
5206.73853,-0.04119
5205.77432,-0.04106
5204.81011,-0.04104
5203.8459,-0.04112
5202.88169,-0.04131
5201.91748,-0.04147
5200.95327,-0.04157
5199.98906,-0.04165
5199.02485,-0.04177
5198.06064,-0.04195
5197.09643,-0.0421
5196.13221,-0.042
5195.168,-0.04175
5194.20379,-0.04158
5193.23958,-0.04153
5192.27537,-0.04155
5191.31116,-0.04163
5190.34695,-0.04172
5189.38274,-0.04171
5188.41853,-0.04151
5187.45432,-0.04135
5186.49011,-0.04164
5185.5259,-0.04231
5184.56168,-0.04276
5183.59747,-0.04264
5182.63326,-0.04232
5181.66905,-0.04217
5180.70484,-0.04219
5179.74063,-0.04221
5178.77642,-0.04208
5177.81221,-0.04189
5176.848,-0.04182
5175.88379,-0.04186
5174.91958,-0.04188
5173.95536,-0.04186
5172.99115,-0.04182
5172.02694,-0.04186
5171.06273,-0.04207
5170.09852,-0.04223
5169.13431,-0.04211
5168.1701,-0.04192
5167.20589,-0.04182
5166.24168,-0.04179
5165.27747,-0.04182
5164.31326,-0.04185
5163.34905,-0.04171
5162.38483,-0.04137
5161.42062,-0.04114
5160.45641,-0.04123
5159.4922,-0.04145
5158.52799,-0.0416
5157.56378,-0.04174
5156.59957,-0.04184
5155.63536,-0.0417
5154.67115,-0.0414
5153.70694,-0.04124
5152.74273,-0.04134
5151.77852,-0.04152
5150.8143,-0.04169
5149.85009,-0.04188
5148.88588,-0.04201
5147.92167,-0.04192
5146.95746,-0.04174
5145.99325,-0.0417
5145.02904,-0.04192
5144.06483,-0.04226
5143.10062,-0.04245
5142.13641,-0.04227
5141.1722,-0.0418
5140.20799,-0.04148
5139.24377,-0.0415
5138.27956,-0.04157
5137.31535,-0.04149
5136.35114,-0.04145
5135.38693,-0.04157
5134.42272,-0.04183
5133.45851,-0.04205
5132.4943,-0.04202
5131.53009,-0.04183
5130.56588,-0.0417
5129.60167,-0.04161
5128.63746,-0.04153
5127.67324,-0.0415
5126.70903,-0.04153
5125.74482,-0.0416
5124.78061,-0.04165
5123.8164,-0.04163
5122.85219,-0.0415
5121.88798,-0.04126
5120.92377,-0.04106
5119.95956,-0.04103
5118.99535,-0.04103
5118.03114,-0.04098
5117.06693,-0.04093
5116.10271,-0.04082
5115.1385,-0.04051
5114.17429,-0.04007
5113.21008,-0.03974
5112.24587,-0.03972
5111.28166,-0.03984
5110.31745,-0.03982
5109.35324,-0.03967
5108.38903,-0.03958
5107.42482,-0.03953
5106.46061,-0.0395
5105.4964,-0.03955
5104.53218,-0.03956
5103.56797,-0.03937
5102.60376,-0.03918
5101.63955,-0.03926
5100.67534,-0.03945
5099.71113,-0.03949
5098.74692,-0.03936
5097.78271,-0.03928
5096.8185,-0.03934
5095.85429,-0.03944
5094.89008,-0.0395
5093.92587,-0.03954
5092.96165,-0.03959
5091.99744,-0.03961
5091.03323,-0.0396
5090.06902,-0.03961
5089.10481,-0.03965
5088.1406,-0.0396
5087.17639,-0.0395
5086.21218,-0.03945
5085.24797,-0.03944
5084.28376,-0.03939
5083.31955,-0.03941
5082.35534,-0.03955
5081.39112,-0.03962
5080.42691,-0.03949
5079.4627,-0.03931
5078.49849,-0.03925
5077.53428,-0.03931
5076.57007,-0.03932
5075.60586,-0.03921
5074.64165,-0.03907
5073.67744,-0.03899
5072.71323,-0.03896
5071.74902,-0.03895
5070.78481,-0.03902
5069.82059,-0.03919
5068.85638,-0.0393
5067.89217,-0.03929
5066.92796,-0.0393
5065.96375,-0.03935
5064.99954,-0.03935
5064.03533,-0.03937
5063.07112,-0.03944
5062.10691,-0.03943
5061.1427,-0.03932
5060.17849,-0.03934
5059.21428,-0.03953
5058.25006,-0.03968
5057.28585,-0.03967
5056.32164,-0.0396
5055.35743,-0.03956
5054.39322,-0.03952
5053.42901,-0.0395
5052.4648,-0.03952
5051.50059,-0.03944
5050.53638,-0.03918
5049.57217,-0.03891
5048.60796,-0.03879
5047.64374,-0.0388
5046.67953,-0.03888
5045.71532,-0.03903
5044.75111,-0.03916
5043.7869,-0.03917
5042.82269,-0.03914
5041.85848,-0.03915
5040.89427,-0.03914
5039.93006,-0.03914
5038.96585,-0.03921
5038.00164,-0.03926
5037.03743,-0.03926
5036.07321,-0.03921
5035.109,-0.03908
5034.14479,-0.03898
5033.18058,-0.03905
5032.21637,-0.03922
5031.25216,-0.03928
5030.28795,-0.03915
5029.32374,-0.039
5028.35953,-0.039
5027.39532,-0.03919
5026.43111,-0.0394
5025.4669,-0.03939
5024.50268,-0.03915
5023.53847,-0.03894
5022.57426,-0.03886
5021.61005,-0.03883
5020.64584,-0.03883
5019.68163,-0.03889
5018.71742,-0.03899
5017.75321,-0.03908
5016.789,-0.03912
5015.82479,-0.03912
5014.86058,-0.03905
5013.89637,-0.03891
5012.93215,-0.03882
5011.96794,-0.03886
5011.00373,-0.03894
5010.03952,-0.03896
5009.07531,-0.03895
5008.1111,-0.03901
5007.14689,-0.03914
5006.18268,-0.03908
5005.21847,-0.03879
5004.25426,-0.03864
5003.29005,-0.03873
5002.32584,-0.03882
5001.36162,-0.03882
5000.39741,-0.03887
4999.4332,-0.03898
4998.46899,-0.03903
4997.50478,-0.03909
4996.54057,-0.03925
4995.57636,-0.0393
4994.61215,-0.03922
4993.64794,-0.03914
4992.68373,-0.03906
4991.71952,-0.03895
4990.75531,-0.03894
4989.79109,-0.03903
4988.82688,-0.03921
4987.86267,-0.03945
4986.89846,-0.0395
4985.93425,-0.03923
4984.97004,-0.03892
4984.00583,-0.0388
4983.04162,-0.03889
4982.07741,-0.03913
4981.1132,-0.03929
4980.14899,-0.03917
4979.18478,-0.03892
4978.22056,-0.03881
4977.25635,-0.03884
4976.29214,-0.03892
4975.32793,-0.03902
4974.36372,-0.03905
4973.39951,-0.03903
4972.4353,-0.039
4971.47109,-0.03891
4970.50688,-0.03892
4969.54267,-0.03911
4968.57846,-0.0393
4967.61425,-0.03938
4966.65003,-0.03929
4965.68582,-0.03914
4964.72161,-0.03914
4963.7574,-0.0392
4962.79319,-0.03921
4961.82898,-0.03927
4960.86477,-0.03934
4959.90056,-0.03921
4958.93635,-0.03904
4957.97214,-0.03909
4957.00793,-0.03928
4956.04372,-0.03935
4955.0795,-0.03922
4954.11529,-0.03908
4953.15108,-0.03903
4952.18687,-0.03903
4951.22266,-0.03911
4950.25845,-0.03918
4949.29424,-0.03902
4948.33003,-0.03874
4947.36582,-0.03866
4946.40161,-0.03887
4945.4374,-0.03909
4944.47319,-0.03917
4943.50897,-0.03915
4942.54476,-0.03912
4941.58055,-0.03909
4940.61634,-0.03907
4939.65213,-0.03912
4938.68792,-0.0391
4937.72371,-0.03895
4936.7595,-0.03897
4935.79529,-0.03908
4934.83108,-0.039
4933.86687,-0.03884
4932.90266,-0.0389
4931.93844,-0.03896
4930.97423,-0.03882
4930.01002,-0.0387
4929.04581,-0.03884
4928.0816,-0.03903
4927.11739,-0.03899
4926.15318,-0.0388
4925.18897,-0.03878
4924.22476,-0.03891
4923.26055,-0.03905
4922.29634,-0.03925
4921.33213,-0.03943
4920.36791,-0.03932
4919.4037,-0.03904
4918.43949,-0.03894
4917.47528,-0.03902
4916.51107,-0.03914
4915.54686,-0.03917
4914.58265,-0.03908
4913.61844,-0.03905
4912.65423,-0.03919
4911.69002,-0.0393
4910.72581,-0.03924
4909.76159,-0.03921
4908.79738,-0.03931
4907.83317,-0.03926
4906.86896,-0.03905
4905.90475,-0.03899
4904.94054,-0.03905
4903.97633,-0.03905
4903.01212,-0.03902
4902.04791,-0.03904
4901.0837,-0.03903
4900.11949,-0.03889
4899.15528,-0.0388
4898.19106,-0.0389
4897.22685,-0.03911
4896.26264,-0.03926
4895.29843,-0.0392
4894.33422,-0.03905
4893.37001,-0.03898
4892.4058,-0.03897
4891.44159,-0.03904
4890.47738,-0.0392
4889.51317,-0.03931
4888.54896,-0.03932
4887.58475,-0.03937
4886.62053,-0.03941
4885.65632,-0.03937
4884.69211,-0.03931
4883.7279,-0.0392
4882.76369,-0.03904
4881.79948,-0.03902
4880.83527,-0.03917
4879.87106,-0.03923
4878.90685,-0.03918
4877.94264,-0.0392
4876.97843,-0.03928
4876.01422,-0.03919
4875.05,-0.03896
4874.08579,-0.03892
4873.12158,-0.03911
4872.15737,-0.03929
4871.19316,-0.03932
4870.22895,-0.03914
4869.26474,-0.03887
4868.30053,-0.03877
4867.33632,-0.03892
4866.37211,-0.03914
4865.4079,-0.03924
4864.44369,-0.03928
4863.47947,-0.03934
4862.51526,-0.03924
4861.55105,-0.03896
4860.58684,-0.03874
4859.62263,-0.03881
4858.65842,-0.03906
4857.69421,-0.03921
4856.73,-0.03919
4855.76579,-0.03906
4854.80158,-0.0389
4853.83737,-0.03885
4852.87316,-0.03903
4851.90894,-0.03924
4850.94473,-0.03927
4849.98052,-0.0391
4849.01631,-0.03892
4848.0521,-0.03901
4847.08789,-0.03929
4846.12368,-0.03944
4845.15947,-0.03927
4844.19526,-0.03899
4843.23105,-0.0389
4842.26684,-0.03901
4841.30263,-0.03915
4840.33841,-0.03925
4839.3742,-0.03924
4838.40999,-0.03909
4837.44578,-0.03895
4836.48157,-0.03896
4835.51736,-0.03899
4834.55315,-0.03889
4833.58894,-0.03885
4832.62473,-0.03903
4831.66052,-0.03927
4830.69631,-0.0394
4829.7321,-0.03939
4828.76788,-0.03922
4827.80367,-0.03895
4826.83946,-0.03881
4825.87525,-0.03886
4824.91104,-0.03893
4823.94683,-0.039
4822.98262,-0.03903
4822.01841,-0.03893
4821.0542,-0.03884
4820.08999,-0.03896
4819.12578,-0.03918
4818.16157,-0.0393
4817.19735,-0.03921
4816.23314,-0.03905
4815.26893,-0.03903
4814.30472,-0.03909
4813.34051,-0.03908
4812.3763,-0.03909
4811.41209,-0.03915
4810.44788,-0.03913
4809.48367,-0.03909
4808.51946,-0.03909
4807.55525,-0.03914
4806.59104,-0.03928
4805.62682,-0.03935
4804.66261,-0.03926
4803.6984,-0.03917
4802.73419,-0.03914
4801.76998,-0.03913
4800.80577,-0.03916
4799.84156,-0.03924
4798.87735,-0.03921
4797.91314,-0.03909
4796.94893,-0.03904
4795.98472,-0.03909
4795.02051,-0.03919
4794.05629,-0.03925
4793.09208,-0.03919
4792.12787,-0.03921
4791.16366,-0.03938
4790.19945,-0.03945
4789.23524,-0.03934
4788.27103,-0.03921
4787.30682,-0.03919
4786.34261,-0.03916
4785.3784,-0.03913
4784.41419,-0.03917
4783.44997,-0.03928
4782.48576,-0.03936
4781.52155,-0.03937
4780.55734,-0.0393
4779.59313,-0.03909
4778.62892,-0.03885
4777.66471,-0.03874
4776.7005,-0.03882
4775.73629,-0.03899
4774.77208,-0.03915
4773.80787,-0.03926
4772.84366,-0.0393
4771.87944,-0.03931
4770.91523,-0.03932
4769.95102,-0.0393
4768.98681,-0.03922
4768.0226,-0.03922
4767.05839,-0.03934
4766.09418,-0.03946
4765.12997,-0.0395
4764.16576,-0.03953
4763.20155,-0.03955
4762.23734,-0.03948
4761.27313,-0.03929
4760.30891,-0.03909
4759.3447,-0.03903
4758.38049,-0.03913
4757.41628,-0.03921
4756.45207,-0.0392
4755.48786,-0.0392
4754.52365,-0.03925
4753.55944,-0.0393
4752.59523,-0.0393
4751.63102,-0.03932
4750.66681,-0.03936
4749.7026,-0.03928
4748.73838,-0.03916
4747.77417,-0.03913
4746.80996,-0.03915
4745.84575,-0.03919
4744.88154,-0.03928
4743.91733,-0.03928
4742.95312,-0.03922
4741.98891,-0.0392
4741.0247,-0.03922
4740.06049,-0.0392
4739.09628,-0.03917
4738.13207,-0.03918
4737.16785,-0.03927
4736.20364,-0.03932
4735.23943,-0.03919
4734.27522,-0.03904
4733.31101,-0.03908
4732.3468,-0.0392
4731.38259,-0.03925
4730.41838,-0.03926
4729.45417,-0.03927
4728.48996,-0.03925
4727.52575,-0.0392
4726.56154,-0.03919
4725.59732,-0.03925
4724.63311,-0.03936
4723.6689,-0.0394
4722.70469,-0.03936
4721.74048,-0.03931
4720.77627,-0.03929
4719.81206,-0.03928
4718.84785,-0.03931
4717.88364,-0.03935
4716.91943,-0.0393
4715.95522,-0.03913
4714.99101,-0.03906
4714.02679,-0.03912
4713.06258,-0.03919
4712.09837,-0.03929
4711.13416,-0.03945
4710.16995,-0.03949
4709.20574,-0.03944
4708.24153,-0.03941
4707.27732,-0.03934
4706.31311,-0.03924
4705.3489,-0.03924
4704.38469,-0.03925
4703.42048,-0.03916
4702.45626,-0.03909
4701.49205,-0.03913
4700.52784,-0.03926
4699.56363,-0.03933
4698.59942,-0.03927
4697.63521,-0.0392
4696.671,-0.03923
4695.70679,-0.03932
4694.74258,-0.03936
4693.77837,-0.03935
4692.81416,-0.03932
4691.84995,-0.03926
4690.88573,-0.03922
4689.92152,-0.03924
4688.95731,-0.03932
4687.9931,-0.03943
4687.02889,-0.03954
4686.06468,-0.03961
4685.10047,-0.03964
4684.13626,-0.03961
4683.17205,-0.03946
4682.20784,-0.03928
4681.24363,-0.03924
4680.27942,-0.03927
4679.3152,-0.03925
4678.35099,-0.0392
4677.38678,-0.03915
4676.42257,-0.03911
4675.45836,-0.03908
4674.49415,-0.03903
4673.52994,-0.03911
4672.56573,-0.03929
4671.60152,-0.03934
4670.63731,-0.03919
4669.6731,-0.03903
4668.70889,-0.03901
4667.74467,-0.0391
4666.78046,-0.03919
4665.81625,-0.03921
4664.85204,-0.03916
4663.88783,-0.03917
4662.92362,-0.03926
4661.95941,-0.03925
4660.9952,-0.03918
4660.03099,-0.03919
4659.06678,-0.03925
4658.10257,-0.0392
4657.13835,-0.03908
4656.17414,-0.03904
4655.20993,-0.03905
4654.24572,-0.0391
4653.28151,-0.03916
4652.3173,-0.03915
4651.35309,-0.03914
4650.38888,-0.03927
4649.42467,-0.03944
4648.46046,-0.03945
4647.49625,-0.03935
4646.53204,-0.03937
4645.56782,-0.03945
4644.60361,-0.03945
4643.6394,-0.03938
4642.67519,-0.03929
4641.71098,-0.03926
4640.74677,-0.03934
4639.78256,-0.03943
4638.81835,-0.03941
4637.85414,-0.03929
4636.88993,-0.03923
4635.92572,-0.03929
4634.96151,-0.0394
4633.99729,-0.03941
4633.03308,-0.03935
4632.06887,-0.03928
4631.10466,-0.03924
4630.14045,-0.03921
4629.17624,-0.03916
4628.21203,-0.03915
4627.24782,-0.03922
4626.28361,-0.03926
4625.3194,-0.03927
4624.35519,-0.03925
4623.39098,-0.03924
4622.42676,-0.03921
4621.46255,-0.03911
4620.49834,-0.03908
4619.53413,-0.03918
4618.56992,-0.03927
4617.60571,-0.03932
4616.6415,-0.03933
4615.67729,-0.03928
4614.71308,-0.0392
4613.74887,-0.03918
4612.78466,-0.03922
4611.82045,-0.03927
4610.85623,-0.0393
4609.89202,-0.03938
4608.92781,-0.03939
4607.9636,-0.03924
4606.99939,-0.03911
4606.03518,-0.03908
4605.07097,-0.0391
4604.10676,-0.03918
4603.14255,-0.03927
4602.17834,-0.03933
4601.21413,-0.03937
4600.24992,-0.03941
4599.2857,-0.0394
4598.32149,-0.03936
4597.35728,-0.03932
4596.39307,-0.03927
4595.42886,-0.03917
4594.46465,-0.03911
4593.50044,-0.03914
4592.53623,-0.03922
4591.57202,-0.03923
4590.60781,-0.03916
4589.6436,-0.03915
4588.67939,-0.0393
4587.71517,-0.03946
4586.75096,-0.03948
4585.78675,-0.03936
4584.82254,-0.03926
4583.85833,-0.03925
4582.89412,-0.03926
4581.92991,-0.03928
4580.9657,-0.03929
4580.00149,-0.03929
4579.03728,-0.03933
4578.07307,-0.03935
4577.10886,-0.03927
4576.14464,-0.03917
4575.18043,-0.03914
4574.21622,-0.03916
4573.25201,-0.03916
4572.2878,-0.03911
4571.32359,-0.03905
4570.35938,-0.03905
4569.39517,-0.03912
4568.43096,-0.03912
4567.46675,-0.03901
4566.50254,-0.03891
4565.53833,-0.03899
4564.57411,-0.03914
4563.6099,-0.0392
4562.64569,-0.03921
4561.68148,-0.03925
4560.71727,-0.03931
4559.75306,-0.03931
4558.78885,-0.03928
4557.82464,-0.03936
4556.86043,-0.03945
4555.89622,-0.03944
4554.93201,-0.03938
4553.9678,-0.03934
4553.00358,-0.03928
4552.03937,-0.03923
4551.07516,-0.03921
4550.11095,-0.03918
4549.14674,-0.03913
4548.18253,-0.03911
4547.21832,-0.0391
4546.25411,-0.03918
4545.2899,-0.03934
4544.32569,-0.0394
4543.36148,-0.03926
4542.39727,-0.03912
4541.43305,-0.03908
4540.46884,-0.03909
4539.50463,-0.03909
4538.54042,-0.03906
4537.57621,-0.03903
4536.612,-0.03903
4535.64779,-0.03908
4534.68358,-0.03916
4533.71937,-0.03923
4532.75516,-0.03923
4531.79095,-0.03918
4530.82673,-0.03915
4529.86252,-0.03919
4528.89831,-0.03925
4527.9341,-0.03921
4526.96989,-0.03912
4526.00568,-0.03908
4525.04147,-0.03904
4524.07726,-0.03905
4523.11305,-0.03916
4522.14884,-0.0393
4521.18463,-0.03937
4520.22042,-0.03936
4519.2562,-0.03928
4518.29199,-0.0392
4517.32778,-0.03913
4516.36357,-0.03906
4515.39936,-0.03905
4514.43515,-0.03914
4513.47094,-0.03923
4512.50673,-0.03925
4511.54252,-0.03922
4510.57831,-0.03913
4509.6141,-0.03908
4508.64989,-0.03908
4507.68567,-0.03908
4506.72146,-0.03915
4505.75725,-0.03925
4504.79304,-0.03925
4503.82883,-0.0392
4502.86462,-0.03919
4501.90041,-0.03923
4500.9362,-0.03924
4499.97199,-0.0392
4499.00778,-0.03923
4498.04357,-0.03936
4497.07936,-0.03949
4496.11514,-0.03947
4495.15093,-0.03926
4494.18672,-0.03911
4493.22251,-0.03913
4492.2583,-0.03918
4491.29409,-0.03924
4490.32988,-0.03935
4489.36567,-0.03942
4488.40146,-0.03937
4487.43725,-0.03927
4486.47304,-0.0392
4485.50883,-0.03922
4484.54461,-0.03932
4483.5804,-0.03945
4482.61619,-0.03955
4481.65198,-0.03956
4480.68777,-0.03944
4479.72356,-0.03932
4478.75935,-0.03928
4477.79514,-0.03922
4476.83093,-0.03913
4475.86672,-0.03908
4474.90251,-0.03913
4473.9383,-0.03924
4472.97408,-0.03931
4472.00987,-0.03937
4471.04566,-0.03941
4470.08145,-0.03933
4469.11724,-0.03924
4468.15303,-0.03925
4467.18882,-0.03928
4466.22461,-0.0393
4465.2604,-0.03932
4464.29619,-0.03934
4463.33198,-0.03933
4462.36777,-0.03931
4461.40355,-0.03926
4460.43934,-0.0392
4459.47513,-0.03917
4458.51092,-0.03913
4457.54671,-0.03909
4456.5825,-0.03915
4455.61829,-0.03922
4454.65408,-0.03912
4453.68987,-0.03894
4452.72566,-0.03891
4451.76145,-0.039
4450.79724,-0.0391
4449.83302,-0.03922
4448.86881,-0.0393
4447.9046,-0.03924
4446.94039,-0.03914
4445.97618,-0.03917
4445.01197,-0.03924
4444.04776,-0.03925
4443.08355,-0.03922
4442.11934,-0.03919
4441.15513,-0.03917
4440.19092,-0.03919
4439.22671,-0.03922
4438.26249,-0.03924
4437.29828,-0.03924
4436.33407,-0.03923
4435.36986,-0.03923
4434.40565,-0.03915
4433.44144,-0.03903
4432.47723,-0.03904
4431.51302,-0.03915
4430.54881,-0.03926
4429.5846,-0.03932
4428.62039,-0.03929
4427.65618,-0.03925
4426.69196,-0.0392
4425.72775,-0.03908
4424.76354,-0.03897
4423.79933,-0.03901
4422.83512,-0.03911
4421.87091,-0.03917
4420.9067,-0.03916
4419.94249,-0.03916
4418.97828,-0.03927
4418.01407,-0.03936
4417.04986,-0.03927
4416.08565,-0.03914
4415.12143,-0.03917
4414.15722,-0.03925
4413.19301,-0.03928
4412.2288,-0.03926
4411.26459,-0.03924
4410.30038,-0.03916
4409.33617,-0.03903
4408.37196,-0.03898
4407.40775,-0.03905
4406.44354,-0.03911
4405.47933,-0.0391
4404.51512,-0.03908
4403.5509,-0.03909
4402.58669,-0.03904
4401.62248,-0.03892
4400.65827,-0.03886
4399.69406,-0.03888
4398.72985,-0.03894
4397.76564,-0.03902
4396.80143,-0.03911
4395.83722,-0.03915
4394.87301,-0.03905
4393.9088,-0.03892
4392.94458,-0.03892
4391.98037,-0.03896
4391.01616,-0.03896
4390.05195,-0.03893
4389.08774,-0.03893
4388.12353,-0.03902
4387.15932,-0.03909
4386.19511,-0.03904
4385.2309,-0.03901
4384.26669,-0.03904
4383.30248,-0.03907
4382.33827,-0.0391
4381.37405,-0.03913
4380.40984,-0.03913
4379.44563,-0.03903
4378.48142,-0.03885
4377.51721,-0.03874
4376.553,-0.03875
4375.58879,-0.03882
4374.62458,-0.03886
4373.66037,-0.03888
4372.69616,-0.0389
4371.73195,-0.03887
4370.76774,-0.03883
4369.80352,-0.03881
4368.83931,-0.03876
4367.8751,-0.03878
4366.91089,-0.03883
4365.94668,-0.03879
4364.98247,-0.03873
4364.01826,-0.03875
4363.05405,-0.03882
4362.08984,-0.03886
4361.12563,-0.03886
4360.16142,-0.03884
4359.19721,-0.03874
4358.23299,-0.0386
4357.26878,-0.03851
4356.30457,-0.03848
4355.34036,-0.03853
4354.37615,-0.03862
4353.41194,-0.03871
4352.44773,-0.03877
4351.48352,-0.03879
4350.51931,-0.03877
4349.5551,-0.03871
4348.59089,-0.03862
4347.62668,-0.03855
4346.66246,-0.0385
4345.69825,-0.03847
4344.73404,-0.03844
4343.76983,-0.03844
4342.80562,-0.03853
4341.84141,-0.0386
4340.8772,-0.03855
4339.91299,-0.03851
4338.94878,-0.03856
4337.98457,-0.03859
4337.02036,-0.03856
4336.05615,-0.03857
4335.09193,-0.03863
4334.12772,-0.03867
4333.16351,-0.03855
4332.1993,-0.03835
4331.23509,-0.03825
4330.27088,-0.0383
4329.30667,-0.03839
4328.34246,-0.03845
4327.37825,-0.03845
4326.41404,-0.03839
4325.44983,-0.03829
4324.48562,-0.03819
4323.5214,-0.03818
4322.55719,-0.03829
4321.59298,-0.03848
4320.62877,-0.03865
4319.66456,-0.0387
4318.70035,-0.03864
4317.73614,-0.03861
4316.77193,-0.03863
4315.80772,-0.03861
4314.84351,-0.03859
4313.8793,-0.03862
4312.91509,-0.03867
4311.95087,-0.03875
4310.98666,-0.03887
4310.02245,-0.03895
4309.05824,-0.03894
4308.09403,-0.0389
4307.12982,-0.03889
4306.16561,-0.03891
4305.2014,-0.03892
4304.23719,-0.03889
4303.27298,-0.03884
4302.30877,-0.03877
4301.34456,-0.03871
4300.38034,-0.03872
4299.41613,-0.03883
4298.45192,-0.03893
4297.48771,-0.03896
4296.5235,-0.03895
4295.55929,-0.03892
4294.59508,-0.03884
4293.63087,-0.03876
4292.66666,-0.03873
4291.70245,-0.03875
4290.73824,-0.03882
4289.77403,-0.0389
4288.80981,-0.03898
4287.8456,-0.03898
4286.88139,-0.03893
4285.91718,-0.03886
4284.95297,-0.03883
4283.98876,-0.03885
4283.02455,-0.03884
4282.06034,-0.0388
4281.09613,-0.03881
4280.13192,-0.03887
4279.16771,-0.03889
4278.2035,-0.03885
4277.23928,-0.03881
4276.27507,-0.03881
4275.31086,-0.03882
4274.34665,-0.03878
4273.38244,-0.03872
4272.41823,-0.03863
4271.45402,-0.03855
4270.48981,-0.03853
4269.5256,-0.03855
4268.56139,-0.03859
4267.59718,-0.03863
4266.63296,-0.03867
4265.66875,-0.03873
4264.70454,-0.03876
4263.74033,-0.03874
4262.77612,-0.03868
4261.81191,-0.03861
4260.8477,-0.03856
4259.88349,-0.03857
4258.91928,-0.03857
4257.95507,-0.03854
4256.99086,-0.03854
4256.02665,-0.03853
4255.06243,-0.03845
4254.09822,-0.03837
4253.13401,-0.03833
4252.1698,-0.03826
4251.20559,-0.03822
4250.24138,-0.03829
4249.27717,-0.0384
4248.31296,-0.03847
4247.34875,-0.0385
4246.38454,-0.03851
4245.42033,-0.03856
4244.45612,-0.03867
4243.4919,-0.03873
4242.52769,-0.03873
4241.56348,-0.03877
4240.59927,-0.03877
4239.63506,-0.03867
4238.67085,-0.03858
4237.70664,-0.03858
4236.74243,-0.03863
4235.77822,-0.03868
4234.81401,-0.03871
4233.8498,-0.03871
4232.88559,-0.03871
4231.92137,-0.03871
4230.95716,-0.03866
4229.99295,-0.03861
4229.02874,-0.03862
4228.06453,-0.03861
4227.10032,-0.03853
4226.13611,-0.03843
4225.1719,-0.03839
4224.20769,-0.03844
4223.24348,-0.03859
4222.27927,-0.03872
4221.31506,-0.03873
4220.35084,-0.03868
4219.38663,-0.03869
4218.42242,-0.03877
4217.45821,-0.03881
4216.494,-0.03877
4215.52979,-0.03871
4214.56558,-0.03867
4213.60137,-0.03866
4212.63716,-0.03862
4211.67295,-0.03856
4210.70874,-0.03857
4209.74453,-0.03865
4208.78031,-0.03864
4207.8161,-0.03855
4206.85189,-0.03857
4205.88768,-0.0387
4204.92347,-0.03876
4203.95926,-0.03867
4202.99505,-0.03854
4202.03084,-0.03849
4201.06663,-0.03852
4200.10242,-0.03858
4199.13821,-0.03861
4198.174,-0.03861
4197.20978,-0.03861
4196.24557,-0.03866
4195.28136,-0.03873
4194.31715,-0.03875
4193.35294,-0.03879
4192.38873,-0.03885
4191.42452,-0.03885
4190.46031,-0.03877
4189.4961,-0.03871
4188.53189,-0.03869
4187.56768,-0.0387
4186.60347,-0.03869
4185.63925,-0.03864
4184.67504,-0.0386
4183.71083,-0.03859
4182.74662,-0.03856
4181.78241,-0.03853
4180.8182,-0.03854
4179.85399,-0.03854
4178.88978,-0.03852
4177.92557,-0.03853
4176.96136,-0.03859
4175.99715,-0.0386
4175.03294,-0.03853
4174.06872,-0.03849
4173.10451,-0.03851
4172.1403,-0.03849
4171.17609,-0.03843
4170.21188,-0.03845
4169.24767,-0.03856
4168.28346,-0.03866
4167.31925,-0.03873
4166.35504,-0.03877
4165.39083,-0.03877
4164.42662,-0.0387
4163.46241,-0.03861
4162.49819,-0.03854
4161.53398,-0.03857
4160.56977,-0.03863
4159.60556,-0.03863
4158.64135,-0.03862
4157.67714,-0.03867
4156.71293,-0.03878
4155.74872,-0.03882
4154.78451,-0.03877
4153.8203,-0.03868
4152.85609,-0.0386
4151.89188,-0.03852
4150.92766,-0.03853
4149.96345,-0.03865
4148.99924,-0.03876
4148.03503,-0.03878
4147.07082,-0.03872
4146.10661,-0.03871
4145.1424,-0.03877
4144.17819,-0.03882
4143.21398,-0.03884
4142.24977,-0.0388
4141.28556,-0.03871
4140.32134,-0.03865
4139.35713,-0.03868
4138.39292,-0.03873
4137.42871,-0.03877
4136.4645,-0.03879
4135.50029,-0.0388
4134.53608,-0.03879
4133.57187,-0.03877
4132.60766,-0.03879
4131.64345,-0.03883
4130.67924,-0.03884
4129.71503,-0.03881
4128.75081,-0.03877
4127.7866,-0.03871
4126.82239,-0.03863
4125.85818,-0.03862
4124.89397,-0.03866
4123.92976,-0.03862
4122.96555,-0.03855
4122.00134,-0.03854
4121.03713,-0.03864
4120.07292,-0.03875
4119.10871,-0.03877
4118.1445,-0.03869
4117.18028,-0.03858
4116.21607,-0.03852
4115.25186,-0.03852
4114.28765,-0.03852
4113.32344,-0.03852
4112.35923,-0.03858
4111.39502,-0.03866
4110.43081,-0.0387
4109.4666,-0.03868
4108.50239,-0.03866
4107.53818,-0.0387
4106.57397,-0.03875
4105.60975,-0.03873
4104.64554,-0.03871
4103.68133,-0.03875
4102.71712,-0.03881
4101.75291,-0.03883
4100.7887,-0.03881
4099.82449,-0.03877
4098.86028,-0.03877
4097.89607,-0.03885
4096.93186,-0.03896
4095.96765,-0.03902
4095.00344,-0.03899
4094.03922,-0.0389
4093.07501,-0.03883
4092.1108,-0.0388
4091.14659,-0.03878
4090.18238,-0.03874
4089.21817,-0.03873
4088.25396,-0.03873
4087.28975,-0.03871
4086.32554,-0.0387
4085.36133,-0.03869
4084.39712,-0.03869
4083.43291,-0.03876
4082.46869,-0.03881
4081.50448,-0.03873
4080.54027,-0.03862
4079.57606,-0.03859
4078.61185,-0.03862
4077.64764,-0.03865
4076.68343,-0.03876
4075.71922,-0.03888
4074.75501,-0.03886
4073.7908,-0.03873
4072.82659,-0.03865
4071.86238,-0.03872
4070.89816,-0.03882
4069.93395,-0.03886
4068.96974,-0.03883
4068.00553,-0.03875
4067.04132,-0.03873
4066.07711,-0.03876
4065.1129,-0.03876
4064.14869,-0.03875
4063.18448,-0.03881
4062.22027,-0.03887
4061.25606,-0.03888
4060.29185,-0.03886
4059.32763,-0.03877
4058.36342,-0.03868
4057.39921,-0.03866
4056.435,-0.03872
4055.47079,-0.03885
4054.50658,-0.03896
4053.54237,-0.03895
4052.57816,-0.03892
4051.61395,-0.03894
4050.64974,-0.03894
4049.68553,-0.03888
4048.72132,-0.03882
4047.7571,-0.0388
4046.79289,-0.03878
4045.82868,-0.03879
4044.86447,-0.03879
4043.90026,-0.03874
4042.93605,-0.03872
4041.97184,-0.03875
4041.00763,-0.03874
4040.04342,-0.03868
4039.07921,-0.03864
4038.115,-0.03861
4037.15079,-0.03862
4036.18657,-0.03868
4035.22236,-0.03877
4034.25815,-0.03882
4033.29394,-0.03879
4032.32973,-0.03879
4031.36552,-0.03884
4030.40131,-0.03889
4029.4371,-0.03889
4028.47289,-0.03888
4027.50868,-0.03892
4026.54447,-0.03893
4025.58026,-0.03882
4024.61604,-0.03866
4023.65183,-0.03863
4022.68762,-0.0387
4021.72341,-0.03873
4020.7592,-0.03873
4019.79499,-0.03873
4018.83078,-0.03871
4017.86657,-0.03869
4016.90236,-0.03873
4015.93815,-0.03881
4014.97394,-0.03888
4014.00972,-0.03892
4013.04551,-0.03891
4012.0813,-0.03884
4011.11709,-0.0388
4010.15288,-0.03886
4009.18867,-0.03892
4008.22446,-0.03886
4007.26025,-0.03874
4006.29604,-0.0387
4005.33183,-0.03874
4004.36762,-0.03879
4003.40341,-0.03881
4002.43919,-0.03883
4001.47498,-0.03886
4000.51077,-0.03884
3999.54656,-0.03882
3998.58235,-0.03887
3997.61814,-0.03896
3996.65393,-0.03905
3995.68972,-0.03913
3994.72551,-0.0391
3993.7613,-0.03897
3992.79709,-0.03891
3991.83288,-0.03897
3990.86866,-0.03897
3989.90445,-0.03885
3988.94024,-0.03874
3987.97603,-0.03879
3987.01182,-0.03892
3986.04761,-0.03899
3985.0834,-0.03896
3984.11919,-0.03893
3983.15498,-0.0389
3982.19077,-0.03886
3981.22656,-0.03882
3980.26235,-0.03879
3979.29813,-0.03881
3978.33392,-0.03892
3977.36971,-0.03903
3976.4055,-0.03904
3975.44129,-0.03893
3974.47708,-0.03885
3973.51287,-0.03886
3972.54866,-0.03893
3971.58445,-0.03896
3970.62024,-0.03897
3969.65603,-0.03899
3968.69182,-0.03895
3967.7276,-0.03886
3966.76339,-0.03882
3965.79918,-0.03884
3964.83497,-0.03889
3963.87076,-0.03896
3962.90655,-0.03902
3961.94234,-0.03897
3960.97813,-0.03882
3960.01392,-0.03873
3959.04971,-0.03878
3958.0855,-0.03888
3957.12129,-0.03895
3956.15707,-0.03897
3955.19286,-0.03898
3954.22865,-0.039
3953.26444,-0.03902
3952.30023,-0.03904
3951.33602,-0.03911
3950.37181,-0.03918
3949.4076,-0.03913
3948.44339,-0.03895
3947.47918,-0.03874
3946.51497,-0.03861
3945.55076,-0.03868
3944.58654,-0.03891
3943.62233,-0.03912
3942.65812,-0.0391
3941.69391,-0.03888
3940.7297,-0.03872
3939.76549,-0.03873
3938.80128,-0.03882
3937.83707,-0.03888
3936.87286,-0.03891
3935.90865,-0.03898
3934.94444,-0.03908
3933.98023,-0.03918
3933.01601,-0.03923
3932.0518,-0.03915
3931.08759,-0.03897
3930.12338,-0.0388
3929.15917,-0.0387
3928.19496,-0.03868
3927.23075,-0.03882
3926.26654,-0.03908
3925.30233,-0.03928
3924.33812,-0.0392
3923.37391,-0.03892
3922.4097,-0.03872
3921.44548,-0.03874
3920.48127,-0.03884
3919.51706,-0.03891
3918.55285,-0.03901
3917.58864,-0.03909
3916.62443,-0.039
3915.66022,-0.03876
3914.69601,-0.03863
3913.7318,-0.0387
3912.76759,-0.03883
3911.80338,-0.0389
3910.83917,-0.03887
3909.87495,-0.03881
3908.91074,-0.03879
3907.94653,-0.0389
3906.98232,-0.03918
3906.01811,-0.03946
3905.0539,-0.03953
3904.08969,-0.03932
3903.12548,-0.03904
3902.16127,-0.03888
3901.19706,-0.03885
3900.23285,-0.03891
3899.26864,-0.03892
3898.30442,-0.03871
3897.34021,-0.03847
3896.376,-0.03845
3895.41179,-0.03869
3894.44758,-0.03905
3893.48337,-0.03937
3892.51916,-0.03948
3891.55495,-0.03924
3890.59074,-0.03873
3889.62653,-0.03838
3888.66232,-0.0385
3887.69811,-0.03893
3886.73389,-0.03932
3885.76968,-0.03937
3884.80547,-0.03904
3883.84126,-0.03875
3882.87705,-0.03878
3881.91284,-0.03898
3880.94863,-0.03902
3879.98442,-0.03872
3879.02021,-0.03835
3878.056,-0.03834
3877.09179,-0.03867
3876.12757,-0.03909
3875.16336,-0.03936
3874.19915,-0.03931
3873.23494,-0.03903
3872.27073,-0.03897
3871.30652,-0.03925
3870.34231,-0.03943
3869.3781,-0.03909
3868.41389,-0.03855
3867.44968,-0.03847
3866.48547,-0.03889
3865.52126,-0.03929
3864.55704,-0.03924
3863.59283,-0.03884
3862.62862,-0.03856
3861.66441,-0.03845
3860.7002,-0.03843
3859.73599,-0.03855
3858.77178,-0.03886
3857.80757,-0.03921
3856.84336,-0.03948
3855.87915,-0.0398
3854.91494,-0.04021
3853.95073,-0.04028
3852.98651,-0.03946
3852.0223,-0.03826
3851.05809,-0.03761
3850.09388,-0.03763
3849.12967,-0.03797
3848.16546,-0.03831
3847.20125,-0.03862
3846.23704,-0.03893
3845.27283,-0.03923
3844.30862,-0.0394
3843.34441,-0.03934
3842.3802,-0.03924
3841.41598,-0.03929
3840.45177,-0.03938
3839.48756,-0.03938
3838.52335,-0.03933
3837.55914,-0.03921
3836.59493,-0.039
3835.63072,-0.03885
3834.66651,-0.03874
3833.7023,-0.03866
3832.73809,-0.0387
3831.77388,-0.03876
3830.80967,-0.03867
3829.84545,-0.03859
3828.88124,-0.0387
3827.91703,-0.03889
3826.95282,-0.03894
3825.98861,-0.03883
3825.0244,-0.03881
3824.06019,-0.03907
3823.09598,-0.03952
3822.13177,-0.03983
3821.16756,-0.03957
3820.20335,-0.03876
3819.23914,-0.03824
3818.27492,-0.03843
3817.31071,-0.03897
3816.3465,-0.03922
3815.38229,-0.03889
3814.41808,-0.0384
3813.45387,-0.03826
3812.48966,-0.03843
3811.52545,-0.03866
3810.56124,-0.03887
3809.59703,-0.03911
3808.63282,-0.0394
3807.66861,-0.03955
3806.70439,-0.03928
3805.74018,-0.03881
3804.77597,-0.03871
3803.81176,-0.0391
3802.84755,-0.03958
3801.88334,-0.03964
3800.91913,-0.0391
3799.95492,-0.03852
3798.99071,-0.03849
3798.0265,-0.03887
3797.06229,-0.03916
3796.09808,-0.03905
3795.13386,-0.03873
3794.16965,-0.03854
3793.20544,-0.03857
3792.24123,-0.03871
3791.27702,-0.03885
3790.31281,-0.03896
3789.3486,-0.03901
3788.38439,-0.03905
3787.42018,-0.0391
3786.45597,-0.03914
3785.49176,-0.03912
3784.52755,-0.03898
3783.56333,-0.03881
3782.59912,-0.03878
3781.63491,-0.03893
3780.6707,-0.03913
3779.70649,-0.03916
3778.74228,-0.0389
3777.77807,-0.03861
3776.81386,-0.03854
3775.84965,-0.03868
3774.88544,-0.03888
3773.92123,-0.03906
3772.95702,-0.03923
3771.9928,-0.03942
3771.02859,-0.03957
3770.06438,-0.03949
3769.10017,-0.03916
3768.13596,-0.0389
3767.17175,-0.03895
3766.20754,-0.03907
3765.24333,-0.03895
3764.27912,-0.03871
3763.31491,-0.03863
3762.3507,-0.03881
3761.38649,-0.03911
3760.42227,-0.03931
3759.45806,-0.0392
3758.49385,-0.03886
3757.52964,-0.03863
3756.56543,-0.03861
3755.60122,-0.03873
3754.63701,-0.03904
3753.6728,-0.03952
3752.70859,-0.03985
3751.74438,-0.03967
3750.78017,-0.03916
3749.81595,-0.03878
3748.85174,-0.03858
3747.88753,-0.03855
3746.92332,-0.03881
3745.95911,-0.03924
3744.9949,-0.03936
3744.03069,-0.03886
3743.06648,-0.03815
3742.10227,-0.03792
3741.13806,-0.03813
3740.17385,-0.03845
3739.20964,-0.03881
3738.24542,-0.03921
3737.28121,-0.03955
3736.317,-0.03967
3735.35279,-0.03937
3734.38858,-0.03876
3733.42437,-0.03835
3732.46016,-0.03828
3731.49595,-0.03829
3730.53174,-0.0383
3729.56753,-0.03844
3728.60332,-0.03877
3727.63911,-0.03914
3726.67489,-0.03934
3725.71068,-0.03928
3724.74647,-0.03914
3723.78226,-0.03912
3722.81805,-0.03913
3721.85384,-0.03898
3720.88963,-0.03875
3719.92542,-0.03868
3718.96121,-0.03871
3717.997,-0.03866
3717.03279,-0.03862
3716.06858,-0.0387
3715.10436,-0.0389
3714.14015,-0.03921
3713.17594,-0.03956
3712.21173,-0.03966
3711.24752,-0.03927
3710.28331,-0.0387
3709.3191,-0.0383
3708.35489,-0.03813
3707.39068,-0.0382
3706.42647,-0.03844
3705.46226,-0.03868
3704.49805,-0.03887
3703.53383,-0.03902
3702.56962,-0.03905
3701.60541,-0.03883
3700.6412,-0.03849
3699.67699,-0.03836
3698.71278,-0.03849
3697.74857,-0.03871
3696.78436,-0.03888
3695.82015,-0.03895
3694.85594,-0.03901
3693.89173,-0.03916
3692.92752,-0.03944
3691.9633,-0.03978
3690.99909,-0.03992
3690.03488,-0.03971
3689.07067,-0.03929
3688.10646,-0.03875
3687.14225,-0.03827
3686.17804,-0.03812
3685.21383,-0.03824
3684.24962,-0.03837
3683.28541,-0.03842
3682.3212,-0.03849
3681.35699,-0.03864
3680.39277,-0.03883
3679.42856,-0.03898
3678.46435,-0.03914
3677.50014,-0.03947
3676.53593,-0.0398
3675.57172,-0.03952
3674.60751,-0.03848
3673.6433,-0.0377
3672.67909,-0.03785
3671.71488,-0.03859
3670.75067,-0.03914
3669.78646,-0.039
3668.82224,-0.03842
3667.85803,-0.03796
3666.89382,-0.03787
3665.92961,-0.03803
3664.9654,-0.03824
3664.00119,-0.03838
3663.03698,-0.03846
3662.07277,-0.0385
3661.10856,-0.03852
3660.14435,-0.03853
3659.18014,-0.03857
3658.21593,-0.03869
3657.25171,-0.0388
3656.2875,-0.03866
3655.32329,-0.03828
3654.35908,-0.03807
3653.39487,-0.03831
3652.43066,-0.03891
3651.46645,-0.0395
3650.50224,-0.03966
3649.53803,-0.03923
3648.57382,-0.03859
3647.60961,-0.03807
3646.6454,-0.03771
3645.68118,-0.03755
3644.71697,-0.03766
3643.75276,-0.03793
3642.78855,-0.03814
3641.82434,-0.03822
3640.86013,-0.03821
3639.89592,-0.03822
3638.93171,-0.03822
3637.9675,-0.03819
3637.00329,-0.03814
3636.03908,-0.03817
3635.07487,-0.03827
3634.11065,-0.03827
3633.14644,-0.03818
3632.18223,-0.03822
3631.21802,-0.03854
3630.25381,-0.0389
3629.2896,-0.03879
3628.32539,-0.03806
3627.36118,-0.03733
3626.39697,-0.03711
3625.43276,-0.03724
3624.46855,-0.03747
3623.50433,-0.03772
3622.54012,-0.03797
3621.57591,-0.03819
3620.6117,-0.03829
3619.64749,-0.03818
3618.68328,-0.03785
3617.71907,-0.03754
3616.75486,-0.03746
3615.79065,-0.03764
3614.82644,-0.03784
3613.86223,-0.03784
3612.89802,-0.03763
3611.9338,-0.0374
3610.96959,-0.03738
3610.00538,-0.03757
3609.04117,-0.03772
3608.07696,-0.03766
3607.11275,-0.03747
3606.14854,-0.03727
3605.18433,-0.03721
3604.22012,-0.03731
3603.25591,-0.03752
3602.2917,-0.0377
3601.32749,-0.03777
3600.36327,-0.0377
3599.39906,-0.03757
3598.43485,-0.03748
3597.47064,-0.0375
3596.50643,-0.03757
3595.54222,-0.03755
3594.57801,-0.03739
3593.6138,-0.03721
3592.64959,-0.0371
3591.68538,-0.03714
3590.72117,-0.03733
3589.75696,-0.03763
3588.79274,-0.03783
3587.82853,-0.03775
3586.86432,-0.03739
3585.90011,-0.03697
3584.9359,-0.03679
3583.97169,-0.03684
3583.00748,-0.03697
3582.04327,-0.03707
3581.07906,-0.03713
3580.11485,-0.0371
3579.15064,-0.03699
3578.18643,-0.03691
3577.22221,-0.03695
3576.258,-0.03703
3575.29379,-0.03707
3574.32958,-0.03705
3573.36537,-0.03699
3572.40116,-0.03698
3571.43695,-0.03704
3570.47274,-0.03718
3569.50853,-0.03739
3568.54432,-0.03757
3567.58011,-0.03752
3566.6159,-0.03715
3565.65168,-0.03669
3564.68747,-0.03644
3563.72326,-0.03649
3562.75905,-0.03666
3561.79484,-0.0368
3560.83063,-0.03683
3559.86642,-0.03675
3558.90221,-0.03659
3557.938,-0.03649
3556.97379,-0.0365
3556.00958,-0.0366
3555.04537,-0.03675
3554.08115,-0.03686
3553.11694,-0.03685
3552.15273,-0.03669
3551.18852,-0.03648
3550.22431,-0.0364
3549.2601,-0.03647
3548.29589,-0.03663
3547.33168,-0.03675
3546.36747,-0.0368
3545.40326,-0.03675
3544.43905,-0.03659
3543.47484,-0.03641
3542.51062,-0.0363
3541.54641,-0.03628
3540.5822,-0.03629
3539.61799,-0.03628
3538.65378,-0.03627
3537.68957,-0.03631
3536.72536,-0.03633
3535.76115,-0.03629
3534.79694,-0.03623
3533.83273,-0.03621
3532.86852,-0.03623
3531.90431,-0.03624
3530.94009,-0.03628
3529.97588,-0.03633
3529.01167,-0.03633
3528.04746,-0.03621
3527.08325,-0.036
3526.11904,-0.03586
3525.15483,-0.03591
3524.19062,-0.03607
3523.22641,-0.0361
3522.2622,-0.03592
3521.29799,-0.03576
3520.33378,-0.03579
3519.36956,-0.03593
3518.40535,-0.03597
3517.44114,-0.03591
3516.47693,-0.03582
3515.51272,-0.03579
3514.54851,-0.03578
3513.5843,-0.03579
3512.62009,-0.03582
3511.65588,-0.0359
3510.69167,-0.036
3509.72746,-0.03599
3508.76325,-0.03581
3507.79903,-0.03563
3506.83482,-0.03561
3505.87061,-0.03571
3504.9064,-0.03582
3503.94219,-0.03589
3502.97798,-0.03582
3502.01377,-0.03563
3501.04956,-0.03547
3500.08535,-0.03543
3499.12114,-0.03551
3498.15693,-0.03565
3497.19272,-0.03573
3496.2285,-0.03565
3495.26429,-0.03549
3494.30008,-0.03538
3493.33587,-0.03536
3492.37166,-0.0354
3491.40745,-0.03547
3490.44324,-0.03552
3489.47903,-0.03555
3488.51482,-0.03557
3487.55061,-0.03553
3486.5864,-0.03543
3485.62218,-0.03535
3484.65797,-0.03531
3483.69376,-0.03534
3482.72955,-0.0354
3481.76534,-0.03539
3480.80113,-0.03531
3479.83692,-0.03528
3478.87271,-0.03533
3477.9085,-0.0354
3476.94429,-0.03543
3475.98008,-0.03543
3475.01587,-0.03537
3474.05165,-0.03528
3473.08744,-0.03521
3472.12323,-0.03518
3471.15902,-0.03512
3470.19481,-0.03505
3469.2306,-0.03508
3468.26639,-0.03519
3467.30218,-0.03524
3466.33797,-0.03516
3465.37376,-0.03509
3464.40955,-0.03515
3463.44534,-0.03521
3462.48112,-0.03512
3461.51691,-0.03497
3460.5527,-0.03489
3459.58849,-0.03489
3458.62428,-0.03492
3457.66007,-0.03493
3456.69586,-0.03496
3455.73165,-0.03498
3454.76744,-0.03495
3453.80323,-0.03493
3452.83902,-0.03495
3451.87481,-0.03496
3450.91059,-0.03492
3449.94638,-0.03488
3448.98217,-0.03488
3448.01796,-0.03494
3447.05375,-0.03489
3446.08954,-0.03473
3445.12533,-0.0347
3444.16112,-0.03483
3443.19691,-0.03495
3442.2327,-0.03491
3441.26849,-0.0348
3440.30428,-0.03476
3439.34006,-0.03479
3438.37585,-0.03484
3437.41164,-0.03488
3436.44743,-0.03488
3435.48322,-0.0348
3434.51901,-0.03467
3433.5548,-0.03455
3432.59059,-0.03452
3431.62638,-0.03458
3430.66217,-0.03464
3429.69796,-0.03461
3428.73375,-0.03455
3427.76953,-0.03455
3426.80532,-0.03457
3425.84111,-0.03454
3424.8769,-0.03446
3423.91269,-0.03439
3422.94848,-0.03435
3421.98427,-0.03435
3421.02006,-0.03431
3420.05585,-0.03422
3419.09164,-0.03411
3418.12743,-0.03405
3417.16322,-0.03404
3416.199,-0.03406
3415.23479,-0.03404
3414.27058,-0.03399
3413.30637,-0.03398
3412.34216,-0.03401
3411.37795,-0.03403
3410.41374,-0.034
3409.44953,-0.03392
3408.48532,-0.03383
3407.52111,-0.03379
3406.5569,-0.03374
3405.59269,-0.03365
3404.62847,-0.03356
3403.66426,-0.03351
3402.70005,-0.03345
3401.73584,-0.03339
3400.77163,-0.03329
3399.80742,-0.0332
3398.84321,-0.0332
3397.879,-0.03317
3396.91479,-0.03301
3395.95058,-0.03282
3394.98637,-0.03275
3394.02216,-0.03278
3393.05794,-0.03277
3392.09373,-0.03272
3391.12952,-0.0327
3390.16531,-0.03269
3389.2011,-0.03262
3388.23689,-0.03253
3387.27268,-0.03247
3386.30847,-0.03242
3385.34426,-0.03232
3384.38005,-0.03213
3383.41584,-0.03193
3382.45163,-0.03185
3381.48741,-0.0319
3380.5232,-0.03198
3379.55899,-0.03192
3378.59478,-0.0317
3377.63057,-0.03145
3376.66636,-0.03132
3375.70215,-0.03131
3374.73794,-0.0313
3373.77373,-0.03122
3372.80952,-0.03108
3371.84531,-0.03093
3370.8811,-0.03083
3369.91688,-0.03077
3368.95267,-0.03066
3367.98846,-0.03047
3367.02425,-0.03031
3366.06004,-0.03021
3365.09583,-0.0301
3364.13162,-0.02994
3363.16741,-0.02977
3362.2032,-0.02959
3361.23899,-0.0294
3360.27478,-0.02925
3359.31056,-0.02911
3358.34635,-0.02889
3357.38214,-0.02862
3356.41793,-0.02837
3355.45372,-0.02817
3354.48951,-0.02799
3353.5253,-0.02783
3352.56109,-0.0276
3351.59688,-0.02729
3350.63267,-0.02696
3349.66846,-0.02665
3348.70425,-0.02637
3347.74003,-0.02613
3346.77582,-0.0259
3345.81161,-0.02562
3344.8474,-0.0253
3343.88319,-0.02492
3342.91898,-0.02451
3341.95477,-0.02412
3340.99056,-0.02376
3340.02635,-0.02339
3339.06214,-0.02299
3338.09793,-0.02256
3337.13372,-0.02209
3336.1695,-0.02162
3335.20529,-0.02113
3334.24108,-0.02057
3333.27687,-0.01994
3332.31266,-0.01927
3331.34845,-0.01865
3330.38424,-0.01809
3329.42003,-0.01757
3328.45582,-0.01705
3327.49161,-0.0165
3326.5274,-0.01588
3325.56319,-0.0152
3324.59897,-0.01445
3323.63476,-0.01366
3322.67055,-0.01289
3321.70634,-0.0121
3320.74213,-0.01127
3319.77792,-0.01042
3318.81371,-0.0096
3317.8495,-0.00878
3316.88529,-0.00795
3315.92108,-0.00712
3314.95687,-0.00627
3313.99266,-0.00537
3313.02844,-0.00444
3312.06423,-0.00354
3311.10002,-0.00264
3310.13581,-0.00178
3309.1716,-0.00097
3308.20739,-0.0002
3307.24318,0.00057
3306.27897,0.00132
3305.31476,0.002
3304.35055,0.00264
3303.38634,0.0033
3302.42213,0.00389
3301.45791,0.00435
3300.4937,0.00474
3299.52949,0.00512
3298.56528,0.00547
3297.60107,0.00578
3296.63686,0.00601
3295.67265,0.00613
3294.70844,0.00616
3293.74423,0.00616
3292.78002,0.00612
3291.81581,0.00603
3290.8516,0.00585
3289.88738,0.00554
3288.92317,0.00515
3287.95896,0.00474
3286.99475,0.00432
3286.03054,0.00382
3285.06633,0.00329
3284.10212,0.00277
3283.13791,0.00229
3282.1737,0.00177
3281.20949,0.00115
3280.24528,0.00052
3279.28107,0
3278.31685,-0.00049
3277.35264,-0.00111
3276.38843,-0.00181
3275.42422,-0.00251
3274.46001,-0.00316
3273.4958,-0.00376
3272.53159,-0.00434
3271.56738,-0.00494
3270.60317,-0.00555
3269.63896,-0.00622
3268.67475,-0.00697
3267.71054,-0.00772
3266.74632,-0.00839
3265.78211,-0.00903
3264.8179,-0.00974
3263.85369,-0.01049
3262.88948,-0.01125
3261.92527,-0.01197
3260.96106,-0.01265
3259.99685,-0.0133
3259.03264,-0.01392
3258.06843,-0.01454
3257.10422,-0.01517
3256.14001,-0.0158
3255.17579,-0.01641
3254.21158,-0.01697
3253.24737,-0.01747
3252.28316,-0.018
3251.31895,-0.01856
3250.35474,-0.01912
3249.39053,-0.01965
3248.42632,-0.02016
3247.46211,-0.02065
3246.4979,-0.02111
3245.53369,-0.02148
3244.56948,-0.02178
3243.60526,-0.02213
3242.64105,-0.02259
3241.67684,-0.02308
3240.71263,-0.02347
3239.74842,-0.02379
3238.78421,-0.02415
3237.82,-0.02452
3236.85579,-0.02482
3235.89158,-0.02506
3234.92737,-0.02529
3233.96316,-0.02555
3232.99894,-0.02579
3232.03473,-0.02598
3231.07052,-0.02617
3230.10631,-0.02641
3229.1421,-0.02663
3228.17789,-0.0268
3227.21368,-0.02694
3226.24947,-0.0271
3225.28526,-0.02727
3224.32105,-0.02739
3223.35684,-0.02752
3222.39263,-0.02766
3221.42841,-0.02779
3220.4642,-0.02792
3219.49999,-0.02801
3218.53578,-0.02806
3217.57157,-0.02814
3216.60736,-0.02824
3215.64315,-0.02831
3214.67894,-0.02836
3213.71473,-0.02839
3212.75052,-0.02847
3211.78631,-0.02859
3210.8221,-0.02869
3209.85788,-0.02878
3208.89367,-0.02885
3207.92946,-0.02892
3206.96525,-0.02897
3206.00104,-0.02904
3205.03683,-0.02917
3204.07262,-0.02934
3203.10841,-0.02949
3202.1442,-0.02962
3201.17999,-0.02978
3200.21578,-0.02995
3199.25157,-0.03007
3198.28735,-0.03014
3197.32314,-0.03022
3196.35893,-0.03036
3195.39472,-0.03051
3194.43051,-0.03061
3193.4663,-0.0307
3192.50209,-0.03085
3191.53788,-0.03106
3190.57367,-0.03127
3189.60946,-0.03142
3188.64525,-0.03157
3187.68104,-0.03172
3186.71682,-0.03188
3185.75261,-0.032
3184.7884,-0.03207
3183.82419,-0.03217
3182.85998,-0.03232
3181.89577,-0.03248
3180.93156,-0.03265
3179.96735,-0.03281
3179.00314,-0.03292
3178.03893,-0.03298
3177.07472,-0.03303
3176.11051,-0.03313
3175.14629,-0.03328
3174.18208,-0.03342
3173.21787,-0.03352
3172.25366,-0.03359
3171.28945,-0.03365
3170.32524,-0.03372
3169.36103,-0.03379
3168.39682,-0.03384
3167.43261,-0.0339
3166.4684,-0.03399
3165.50419,-0.03408
3164.53998,-0.03412
3163.57576,-0.03415
3162.61155,-0.03419
3161.64734,-0.03424
3160.68313,-0.03429
3159.71892,-0.03437
3158.75471,-0.03448
3157.7905,-0.03457
3156.82629,-0.03461
3155.86208,-0.0346
3154.89787,-0.0346
3153.93366,-0.03465
3152.96945,-0.0347
3152.00523,-0.03472
3151.04102,-0.03471
3150.07681,-0.0347
3149.1126,-0.0347
3148.14839,-0.0347
3147.18418,-0.03471
3146.21997,-0.03474
3145.25576,-0.03475
3144.29155,-0.03473
3143.32734,-0.03473
3142.36313,-0.03474
3141.39892,-0.03473
3140.4347,-0.03469
3139.47049,-0.03465
3138.50628,-0.03464
3137.54207,-0.03464
3136.57786,-0.03464
3135.61365,-0.03464
3134.64944,-0.03461
3133.68523,-0.03455
3132.72102,-0.03442
3131.75681,-0.03425
3130.7926,-0.03415
3129.82839,-0.03414
3128.86417,-0.03416
3127.89996,-0.03414
3126.93575,-0.03402
3125.97154,-0.03383
3125.00733,-0.03369
3124.04312,-0.03364
3123.07891,-0.03357
3122.1147,-0.03341
3121.15049,-0.03325
3120.18628,-0.03314
3119.22207,-0.03302
3118.25786,-0.03287
3117.29364,-0.03272
3116.32943,-0.03254
3115.36522,-0.03232
3114.40101,-0.03213
3113.4368,-0.03201
3112.47259,-0.03184
3111.50838,-0.03158
3110.54417,-0.03128
3109.57996,-0.03104
3108.61575,-0.03086
3107.65154,-0.03067
3106.68732,-0.03042
3105.72311,-0.0302
3104.7589,-0.03003
3103.79469,-0.02986
3102.83048,-0.02963
3101.86627,-0.02938
3100.90206,-0.02912
3099.93785,-0.02886
3098.97364,-0.02865
3098.00943,-0.0285
3097.04522,-0.02839
3096.08101,-0.02827
3095.11679,-0.02812
3094.15258,-0.028
3093.18837,-0.02798
3092.22416,-0.02797
3091.25995,-0.02793
3090.29574,-0.02788
3089.33153,-0.02787
3088.36732,-0.02792
3087.40311,-0.02801
3086.4389,-0.02814
3085.47469,-0.02827
3084.51048,-0.02835
3083.54626,-0.02841
3082.58205,-0.02854
3081.61784,-0.02876
3080.65363,-0.02898
3079.68942,-0.02916
3078.72521,-0.02931
3077.761,-0.02944
3076.79679,-0.02957
3075.83258,-0.02968
3074.86837,-0.02983
3073.90416,-0.03001
3072.93995,-0.03019
3071.97573,-0.03037
3071.01152,-0.03061
3070.04731,-0.03092
3069.0831,-0.0312
3068.11889,-0.03136
3067.15468,-0.03146
3066.19047,-0.03158
3065.22626,-0.0318
3064.26205,-0.03205
3063.29784,-0.03225
3062.33363,-0.03245
3061.36942,-0.03267
3060.4052,-0.03287
3059.44099,-0.03307
3058.47678,-0.03327
3057.51257,-0.03343
3056.54836,-0.03352
3055.58415,-0.03357
3054.61994,-0.03366
3053.65573,-0.0338
3052.69152,-0.03394
3051.72731,-0.03406
3050.7631,-0.03417
3049.79889,-0.03423
3048.83467,-0.03427
3047.87046,-0.03437
3046.90625,-0.03453
3045.94204,-0.0347
3044.97783,-0.03479
3044.01362,-0.03485
3043.04941,-0.03495
3042.0852,-0.03505
3041.12099,-0.03515
3040.15678,-0.03523
3039.19257,-0.03528
3038.22836,-0.03529
3037.26414,-0.03531
3036.29993,-0.03534
3035.33572,-0.03537
3034.37151,-0.03537
3033.4073,-0.03537
3032.44309,-0.03542
3031.47888,-0.03544
3030.51467,-0.0354
3029.55046,-0.03537
3028.58625,-0.03539
3027.62204,-0.03544
3026.65783,-0.03546
3025.69361,-0.03543
3024.7294,-0.03541
3023.76519,-0.0354
3022.80098,-0.03537
3021.83677,-0.03534
3020.87256,-0.03535
3019.90835,-0.03539
3018.94414,-0.03539
3017.97993,-0.03535
3017.01572,-0.0353
3016.05151,-0.03529
3015.0873,-0.03532
3014.12308,-0.03537
3013.15887,-0.03537
3012.19466,-0.0353
3011.23045,-0.03521
3010.26624,-0.03509
3009.30203,-0.03496
3008.33782,-0.03489
3007.37361,-0.03488
3006.4094,-0.03486
3005.44519,-0.03482
3004.48098,-0.03478
3003.51677,-0.03475
3002.55255,-0.03467
3001.58834,-0.03455
3000.62413,-0.03445
2999.65992,-0.03442
2998.69571,-0.0344
2997.7315,-0.03438
2996.76729,-0.03427
2995.80308,-0.03412
2994.83887,-0.03401
2993.87466,-0.03395
2992.91045,-0.03392
2991.94624,-0.03384
2990.98202,-0.03364
2990.01781,-0.03344
2989.0536,-0.0333
2988.08939,-0.03313
2987.12518,-0.0329
2986.16097,-0.03273
2985.19676,-0.03264
2984.23255,-0.03248
2983.26834,-0.03228
2982.30413,-0.03208
2981.33992,-0.03183
2980.37571,-0.03153
2979.41149,-0.03128
2978.44728,-0.03099
2977.48307,-0.03062
2976.51886,-0.03021
2975.55465,-0.02979
2974.59044,-0.02932
2973.62623,-0.02877
2972.66202,-0.02819
2971.69781,-0.02762
2970.7336,-0.027
2969.76939,-0.02629
2968.80517,-0.02552
2967.84096,-0.02471
2966.87675,-0.02387
2965.91254,-0.02301
2964.94833,-0.02211
2963.98412,-0.02122
2963.01991,-0.02039
2962.0557,-0.01965
2961.09149,-0.01893
2960.12728,-0.01818
2959.16307,-0.0174
2958.19886,-0.0166
2957.23464,-0.01577
2956.27043,-0.01487
2955.30622,-0.01386
2954.34201,-0.01274
2953.3778,-0.01154
2952.41359,-0.01026
2951.44938,-0.0088
2950.48517,-0.00719
2949.52096,-0.00552
2948.55675,-0.0038
2947.59254,-0.00191
2946.62833,0.00016
2945.66411,0.00234
2944.6999,0.0046
2943.73569,0.00697
2942.77148,0.00954
2941.80727,0.01237
2940.84306,0.01538
2939.87885,0.01849
2938.91464,0.02172
2937.95043,0.02515
2936.98622,0.02876
2936.02201,0.0326
2935.0578,0.03669
2934.09358,0.04097
2933.12937,0.04545
2932.16516,0.05011
2931.20095,0.05488
2930.23674,0.05969
2929.27253,0.06459
2928.30832,0.06964
2927.34411,0.07479
2926.3799,0.07995
2925.41569,0.0851
2924.45148,0.0902
2923.48727,0.09515
2922.52305,0.09985
2921.55884,0.10417
2920.59463,0.10781
2919.63042,0.11041
2918.66621,0.11161
2917.702,0.11121
2916.73779,0.10897
2915.77358,0.10485
2914.80937,0.09912
2913.84516,0.09216
2912.88095,0.08436
2911.91674,0.07618
2910.95252,0.06809
2909.98831,0.06056
2909.0241,0.05383
2908.05989,0.04798
2907.09568,0.04296
2906.13147,0.03861
2905.16726,0.03481
2904.20305,0.03148
2903.23884,0.0285
2902.27463,0.02584
2901.31042,0.02351
2900.34621,0.02139
2899.38199,0.01934
2898.41778,0.01727
2897.45357,0.01516
2896.48936,0.01309
2895.52515,0.01111
2894.56094,0.0092
2893.59673,0.0074
2892.63252,0.00575
2891.66831,0.00423
2890.7041,0.00284
2889.73989,0.00148
2888.77568,0.00017
2887.81146,-0.001
2886.84725,-0.002
2885.88304,-0.00285
2884.91883,-0.0036
2883.95462,-0.00427
2882.99041,-0.00492
2882.0262,-0.0056
2881.06199,-0.00624
2880.09778,-0.00678
2879.13357,-0.00721
2878.16936,-0.00754
2877.20515,-0.00779
2876.24093,-0.00793
2875.27672,-0.00788
2874.31251,-0.00761
2873.3483,-0.00717
2872.38409,-0.00661
2871.41988,-0.00591
2870.45567,-0.00509
2869.49146,-0.0041
2868.52725,-0.00291
2867.56304,-0.00146
2866.59883,0.00029
2865.63462,0.00231
2864.6704,0.00461
2863.70619,0.0073
2862.74198,0.01043
2861.77777,0.01394
2860.81356,0.01786
2859.84935,0.02222
2858.88514,0.02708
2857.92093,0.03246
2856.95672,0.03832
2855.99251,0.04453
2855.0283,0.05102
2854.06409,0.05778
2853.09987,0.0647
2852.13566,0.07144
2851.17145,0.07737
2850.20724,0.08162
2849.24303,0.08297
2848.27882,0.08036
2847.31461,0.07354
2846.3504,0.06339
2845.38619,0.05164
2844.42198,0.03988
2843.45777,0.02902
2842.49355,0.01937
2841.52934,0.01102
2840.56513,0.00391
2839.60092,-0.00202
2838.63671,-0.0069
2837.6725,-0.01085
2836.70829,-0.01405
2835.74408,-0.01669
2834.77987,-0.01887
2833.81566,-0.02068
2832.85145,-0.02221
2831.88724,-0.02349
2830.92302,-0.02455
2829.95881,-0.02544
2828.9946,-0.02623
2828.03039,-0.02696
2827.06618,-0.02763
2826.10197,-0.02825
2825.13776,-0.02881
2824.17355,-0.02931
2823.20934,-0.02976
2822.24513,-0.03016
2821.28092,-0.03049
2820.31671,-0.03077
2819.35249,-0.03105
2818.38828,-0.03134
2817.42407,-0.03164
2816.45986,-0.0319
2815.49565,-0.0321
2814.53144,-0.03227
2813.56723,-0.03243
2812.60302,-0.03265
2811.63881,-0.03287
2810.6746,-0.03306
2809.71039,-0.03322
2808.74618,-0.03337
2807.78196,-0.03349
2806.81775,-0.03357
2805.85354,-0.03364
2804.88933,-0.03377
2803.92512,-0.03393
2802.96091,-0.03406
2801.9967,-0.03417
2801.03249,-0.0343
2800.06828,-0.03441
2799.10407,-0.03448
2798.13986,-0.03452
2797.17565,-0.0346
2796.21143,-0.03479
2795.24722,-0.03498
2794.28301,-0.03506
2793.3188,-0.03509
2792.35459,-0.03514
2791.39038,-0.03524
2790.42617,-0.03539
2789.46196,-0.03554
2788.49775,-0.03566
2787.53354,-0.03576
2786.56933,-0.03586
2785.60512,-0.03602
2784.6409,-0.03618
2783.67669,-0.0363
2782.71248,-0.03641
2781.74827,-0.03653
2780.78406,-0.03661
2779.81985,-0.03666
2778.85564,-0.03673
2777.89143,-0.03687
2776.92722,-0.03698
2775.96301,-0.03703
2774.9988,-0.0371
2774.03459,-0.03718
2773.07037,-0.03725
2772.10616,-0.03729
2771.14195,-0.0373
2770.17774,-0.03732
2769.21353,-0.03739
2768.24932,-0.03743
2767.28511,-0.03745
2766.3209,-0.03745
2765.35669,-0.03744
2764.39248,-0.03747
2763.42827,-0.03754
2762.46406,-0.03759
2761.49984,-0.03763
2760.53563,-0.03766
2759.57142,-0.03769
2758.60721,-0.03772
2757.643,-0.03775
2756.67879,-0.0378
2755.71458,-0.03784
2754.75037,-0.03787
2753.78616,-0.03788
2752.82195,-0.03784
2751.85774,-0.03783
2750.89353,-0.03785
2749.92931,-0.03787
2748.9651,-0.03789
2748.00089,-0.0379
2747.03668,-0.0379
2746.07247,-0.03794
2745.10826,-0.038
2744.14405,-0.03801
2743.17984,-0.03797
2742.21563,-0.03793
2741.25142,-0.03792
2740.28721,-0.03796
2739.323,-0.03799
2738.35878,-0.03798
2737.39457,-0.03795
2736.43036,-0.03792
2735.46615,-0.03795
2734.50194,-0.03803
2733.53773,-0.03808
2732.57352,-0.03811
2731.60931,-0.03816
2730.6451,-0.0382
2729.68089,-0.03821
2728.71668,-0.03819
2727.75247,-0.03821
2726.78825,-0.03826
2725.82404,-0.03827
2724.85983,-0.03825
2723.89562,-0.03823
2722.93141,-0.03824
2721.9672,-0.03828
2721.00299,-0.03832
2720.03878,-0.03836
2719.07457,-0.0384
2718.11036,-0.03845
2717.14615,-0.03848
2716.18193,-0.03848
2715.21772,-0.03846
2714.25351,-0.03843
2713.2893,-0.03841
2712.32509,-0.03839
2711.36088,-0.03841
2710.39667,-0.03849
2709.43246,-0.03854
2708.46825,-0.03853
2707.50404,-0.03852
2706.53983,-0.03854
2705.57562,-0.03858
2704.6114,-0.0386
2703.64719,-0.0386
2702.68298,-0.03861
2701.71877,-0.0386
2700.75456,-0.03858
2699.79035,-0.03858
2698.82614,-0.0386
2697.86193,-0.03859
2696.89772,-0.03855
2695.93351,-0.03852
2694.9693,-0.0385
2694.00509,-0.03849
2693.04087,-0.0385
2692.07666,-0.03852
2691.11245,-0.0385
2690.14824,-0.03844
2689.18403,-0.03844
2688.21982,-0.03849
2687.25561,-0.03849
2686.2914,-0.03844
2685.32719,-0.03837
2684.36298,-0.03832
2683.39877,-0.03831
2682.43456,-0.03833
2681.47034,-0.03839
2680.50613,-0.03845
2679.54192,-0.0385
2678.57771,-0.03853
2677.6135,-0.03855
2676.64929,-0.03856
2675.68508,-0.0386
2674.72087,-0.03865
2673.75666,-0.03868
2672.79245,-0.03869
2671.82824,-0.03869
2670.86403,-0.03868
2669.89981,-0.03868
2668.9356,-0.03868
2667.97139,-0.03865
2667.00718,-0.03863
2666.04297,-0.03866
2665.07876,-0.03869
2664.11455,-0.03866
2663.15034,-0.03863
2662.18613,-0.03864
2661.22192,-0.03864
2660.25771,-0.03865
2659.2935,-0.03869
2658.32928,-0.03869
2657.36507,-0.03867
2656.40086,-0.03869
2655.43665,-0.03876
2654.47244,-0.0388
2653.50823,-0.0388
2652.54402,-0.03882
2651.57981,-0.03885
2650.6156,-0.03882
2649.65139,-0.03877
2648.68718,-0.03876
2647.72297,-0.03878
2646.75875,-0.03882
2645.79454,-0.03885
2644.83033,-0.03886
2643.86612,-0.03892
2642.90191,-0.03895
2641.9377,-0.03895
2640.97349,-0.03894
2640.00928,-0.0389
2639.04507,-0.03889
2638.08086,-0.0389
2637.11665,-0.0389
2636.15244,-0.0389
2635.18822,-0.03891
2634.22401,-0.03892
2633.2598,-0.03894
2632.29559,-0.03896
2631.33138,-0.039
2630.36717,-0.03903
2629.40296,-0.03904
2628.43875,-0.03906
2627.47454,-0.0391
2626.51033,-0.03907
2625.54612,-0.03899
2624.58191,-0.03897
2623.61769,-0.03902
2622.65348,-0.03907
2621.68927,-0.03906
2620.72506,-0.03904
2619.76085,-0.03905
2618.79664,-0.03905
2617.83243,-0.03907
2616.86822,-0.03913
2615.90401,-0.03918
2614.9398,-0.03921
2613.97559,-0.03923
2613.01138,-0.03926
2612.04716,-0.03927
2611.08295,-0.03923
2610.11874,-0.03921
2609.15453,-0.03922
2608.19032,-0.03921
2607.22611,-0.03918
2606.2619,-0.03915
2605.29769,-0.03916
2604.33348,-0.03921
2603.36927,-0.03923
2602.40506,-0.03921
2601.44085,-0.03924
2600.47663,-0.03931
2599.51242,-0.03935
2598.54821,-0.03933
2597.584,-0.0393
2596.61979,-0.0393
2595.65558,-0.03933
2594.69137,-0.03935
2593.72716,-0.03935
2592.76295,-0.03937
2591.79874,-0.03935
2590.83453,-0.03931
2589.87032,-0.0393
2588.9061,-0.03932
2587.94189,-0.03936
2586.97768,-0.03941
2586.01347,-0.03944
2585.04926,-0.03945
2584.08505,-0.03943
2583.12084,-0.03941
2582.15663,-0.03942
2581.19242,-0.03944
2580.22821,-0.03944
2579.264,-0.03945
2578.29978,-0.03947
2577.33557,-0.03947
2576.37136,-0.03947
2575.40715,-0.03949
2574.44294,-0.03954
2573.47873,-0.03954
2572.51452,-0.03953
2571.55031,-0.03956
2570.5861,-0.03959
2569.62189,-0.0396
2568.65768,-0.03959
2567.69347,-0.03957
2566.72925,-0.03955
2565.76504,-0.03954
2564.80083,-0.03957
2563.83662,-0.0396
2562.87241,-0.0396
2561.9082,-0.03959
2560.94399,-0.03961
2559.97978,-0.03966
2559.01557,-0.03968
2558.05136,-0.03969
2557.08715,-0.03966
2556.12294,-0.03963
2555.15872,-0.03966
2554.19451,-0.03971
2553.2303,-0.03972
2552.26609,-0.03967
2551.30188,-0.03966
2550.33767,-0.03971
2549.37346,-0.03978
2548.40925,-0.03982
2547.44504,-0.03984
2546.48083,-0.03982
2545.51662,-0.03979
2544.55241,-0.03976
2543.58819,-0.03974
2542.62398,-0.03977
2541.65977,-0.0398
2540.69556,-0.0398
2539.73135,-0.03978
2538.76714,-0.03977
2537.80293,-0.03977
2536.83872,-0.03978
2535.87451,-0.03976
2534.9103,-0.03973
2533.94609,-0.03971
2532.98188,-0.03971
2532.01766,-0.03972
2531.05345,-0.03972
2530.08924,-0.03973
2529.12503,-0.03975
2528.16082,-0.03976
2527.19661,-0.03977
2526.2324,-0.03979
2525.26819,-0.0398
2524.30398,-0.0398
2523.33977,-0.03981
2522.37556,-0.0398
2521.41135,-0.0398
2520.44713,-0.03984
2519.48292,-0.03987
2518.51871,-0.03988
2517.5545,-0.03989
2516.59029,-0.03988
2515.62608,-0.03988
2514.66187,-0.03992
2513.69766,-0.03994
2512.73345,-0.03995
2511.76924,-0.03993
2510.80503,-0.03993
2509.84082,-0.03992
2508.8766,-0.03988
2507.91239,-0.03988
2506.94818,-0.03992
2505.98397,-0.03993
2505.01976,-0.03993
2504.05555,-0.03992
2503.09134,-0.0399
2502.12713,-0.03989
2501.16292,-0.03989
2500.19871,-0.0399
2499.2345,-0.03988
2498.27029,-0.03989
2497.30607,-0.03994
2496.34186,-0.03997
2495.37765,-0.03995
2494.41344,-0.03993
2493.44923,-0.03991
2492.48502,-0.03987
2491.52081,-0.03985
2490.5566,-0.03987
2489.59239,-0.03991
2488.62818,-0.03991
2487.66397,-0.03989
2486.69976,-0.03988
2485.73554,-0.03991
2484.77133,-0.03994
2483.80712,-0.03994
2482.84291,-0.03991
2481.8787,-0.03989
2480.91449,-0.03988
2479.95028,-0.03986
2478.98607,-0.03986
2478.02186,-0.03991
2477.05765,-0.03997
2476.09344,-0.03999
2475.12923,-0.03999
2474.16501,-0.03997
2473.2008,-0.03995
2472.23659,-0.03994
2471.27238,-0.03994
2470.30817,-0.03996
2469.34396,-0.03998
2468.37975,-0.03997
2467.41554,-0.03998
2466.45133,-0.04002
2465.48712,-0.04004
2464.52291,-0.04003
2463.5587,-0.04002
2462.59448,-0.04003
2461.63027,-0.04005
2460.66606,-0.04007
2459.70185,-0.04006
2458.73764,-0.04004
2457.77343,-0.04004
2456.80922,-0.04006
2455.84501,-0.04009
2454.8808,-0.0401
2453.91659,-0.04011
2452.95238,-0.04011
2451.98816,-0.04008
2451.02395,-0.04008
2450.05974,-0.04011
2449.09553,-0.04011
2448.13132,-0.04009
2447.16711,-0.04007
2446.2029,-0.04007
2445.23869,-0.04008
2444.27448,-0.04007
2443.31027,-0.04005
2442.34606,-0.04006
2441.38185,-0.04007
2440.41763,-0.04007
2439.45342,-0.04007
2438.48921,-0.04007
2437.525,-0.04008
2436.56079,-0.04007
2435.59658,-0.04006
2434.63237,-0.04007
2433.66816,-0.04009
2432.70395,-0.04009
2431.73974,-0.04008
2430.77553,-0.04007
2429.81132,-0.04007
2428.8471,-0.04006
2427.88289,-0.04002
2426.91868,-0.04
2425.95447,-0.04
2424.99026,-0.04004
2424.02605,-0.04007
2423.06184,-0.04006
2422.09763,-0.04006
2421.13342,-0.04005
2420.16921,-0.04002
2419.205,-0.04001
2418.24079,-0.04003
2417.27657,-0.04005
2416.31236,-0.04008
2415.34815,-0.0401
2414.38394,-0.04008
2413.41973,-0.04009
2412.45552,-0.04012
2411.49131,-0.04013
2410.5271,-0.04012
2409.56289,-0.0401
2408.59868,-0.04008
2407.63447,-0.04005
2406.67026,-0.04001
2405.70604,-0.04002
2404.74183,-0.04006
2403.77762,-0.04007
2402.81341,-0.04008
2401.8492,-0.04008
2400.88499,-0.04008
2399.92078,-0.04009
2398.95657,-0.04009
2397.99236,-0.04007
2397.02815,-0.04005
2396.06394,-0.04002
2395.09973,-0.04001
2394.13551,-0.04002
2393.1713,-0.04002
2392.20709,-0.04001
2391.24288,-0.03999
2390.27867,-0.03996
2389.31446,-0.03992
2388.35025,-0.0399
2387.38604,-0.03989
2386.42183,-0.0399
2385.45762,-0.03992
2384.49341,-0.03996
2383.5292,-0.04005
2382.56498,-0.04018
2381.60077,-0.04029
2380.63656,-0.0403
2379.67235,-0.04014
2378.70814,-0.03988
2377.74393,-0.03974
2376.77972,-0.03982
2375.81551,-0.03999
2374.8513,-0.04005
2373.88709,-0.04001
2372.92288,-0.04001
2371.95867,-0.04007
2370.99445,-0.04012
2370.03024,-0.04014
2369.06603,-0.04009
2368.10182,-0.03993
2367.13761,-0.03974
2366.1734,-0.03957
2365.20919,-0.0395
2364.24498,-0.03952
2363.28077,-0.0396
2362.31656,-0.03967
2361.35235,-0.0397
2360.38814,-0.03967
2359.42392,-0.03963
2358.45971,-0.03973
2357.4955,-0.04007
2356.53129,-0.04049
2355.56708,-0.04063
2354.60287,-0.04042
2353.63866,-0.04016
2352.67445,-0.04006
2351.71024,-0.04011
2350.74603,-0.04025
2349.78182,-0.04055
2348.81761,-0.04092
2347.85339,-0.04111
2346.88918,-0.04098
2345.92497,-0.04069
2344.96076,-0.0405
2343.99655,-0.04049
2343.03234,-0.04053
2342.06813,-0.04046
2341.10392,-0.04032
2340.13971,-0.04022
2339.1755,-0.04021
2338.21129,-0.0402
2337.24708,-0.04014
2336.28286,-0.04006
2335.31865,-0.0401
2334.35444,-0.04025
2333.39023,-0.04041
2332.42602,-0.04049
2331.46181,-0.04051
2330.4976,-0.04049
2329.53339,-0.04043
2328.56918,-0.0403
2327.60497,-0.04014
2326.64076,-0.04002
2325.67654,-0.04001
2324.71233,-0.0401
2323.74812,-0.04026
2322.78391,-0.04045
2321.8197,-0.04062
2320.85549,-0.04071
2319.89128,-0.04068
2318.92707,-0.04052
2317.96286,-0.04027
2316.99865,-0.04003
2316.03444,-0.03997
2315.07023,-0.04015
2314.10601,-0.04041
2313.1418,-0.04052
2312.17759,-0.04042
2311.21338,-0.04023
2310.24917,-0.04012
2309.28496,-0.04014
2308.32075,-0.04022
2307.35654,-0.04024
2306.39233,-0.04016
2305.42812,-0.04003
2304.46391,-0.04
2303.4997,-0.04008
2302.53548,-0.04019
2301.57127,-0.04024
2300.60706,-0.04023
2299.64285,-0.04017
2298.67864,-0.04009
2297.71443,-0.04007
2296.75022,-0.04011
2295.78601,-0.04017
2294.8218,-0.04022
2293.85759,-0.04025
2292.89338,-0.04026
2291.92917,-0.04023
2290.96495,-0.04019
2290.00074,-0.04017
2289.03653,-0.04018
2288.07232,-0.04019
2287.10811,-0.0402
2286.1439,-0.04019
2285.17969,-0.04015
2284.21548,-0.04012
2283.25127,-0.04011
2282.28706,-0.04012
2281.32285,-0.04015
2280.35864,-0.04018
2279.39442,-0.0402
2278.43021,-0.0402
2277.466,-0.04019
2276.50179,-0.04017
2275.53758,-0.04016
2274.57337,-0.04018
2273.60916,-0.04022
2272.64495,-0.04025
2271.68074,-0.04026
2270.71653,-0.04024
2269.75232,-0.04022
2268.78811,-0.04021
2267.82389,-0.04019
2266.85968,-0.04015
2265.89547,-0.04012
2264.93126,-0.04013
2263.96705,-0.04017
2263.00284,-0.04021
2262.03863,-0.04021
2261.07442,-0.04017
2260.11021,-0.04013
2259.146,-0.04011
2258.18179,-0.04012
2257.21758,-0.04016
2256.25336,-0.04019
2255.28915,-0.04017
2254.32494,-0.04014
2253.36073,-0.04012
2252.39652,-0.04014
2251.43231,-0.04016
2250.4681,-0.04015
2249.50389,-0.04019
2248.53968,-0.04018
2247.57547,-0.04021
2246.61126,-0.04025
2245.64705,-0.04025
2244.68283,-0.04022
2243.71862,-0.04022
2242.75441,-0.04022
2241.7902,-0.04022
2240.82599,-0.04022
2239.86178,-0.04025
2238.89757,-0.04027
2237.93336,-0.04026
2236.96915,-0.04022
2236.00494,-0.0402
2235.04073,-0.04019
2234.07652,-0.04017
2233.1123,-0.04017
2232.14809,-0.04017
2231.18388,-0.04017
2230.21967,-0.04018
2229.25546,-0.04016
2228.29125,-0.04014
2227.32704,-0.04012
2226.36283,-0.0401
2225.39862,-0.0401
2224.43441,-0.04013
2223.4702,-0.04013
2222.50599,-0.04012
2221.54177,-0.04012
2220.57756,-0.04013
2219.61335,-0.04017
2218.64914,-0.0402
2217.68493,-0.04023
2216.72072,-0.04022
2215.75651,-0.04016
2214.7923,-0.04011
2213.82809,-0.04009
2212.86388,-0.04009
2211.89967,-0.04013
2210.93546,-0.04016
2209.97124,-0.04014
2209.00703,-0.04012
2208.04282,-0.04016
2207.07861,-0.04021
2206.1144,-0.04022
2205.15019,-0.04017
2204.18598,-0.04011
2203.22177,-0.04008
2202.25756,-0.04008
2201.29335,-0.04009
2200.32914,-0.04011
2199.36492,-0.04011
2198.40071,-0.04009
2197.4365,-0.04009
2196.47229,-0.04008
2195.50808,-0.0401
2194.54387,-0.04013
2193.57966,-0.04014
2192.61545,-0.04015
2191.65124,-0.04015
2190.68703,-0.04014
2189.72282,-0.04009
2188.75861,-0.04004
2187.79439,-0.04003
2186.83018,-0.04005
2185.86597,-0.04007
2184.90176,-0.04009
2183.93755,-0.0401
2182.97334,-0.04008
2182.00913,-0.04007
2181.04492,-0.04008
2180.08071,-0.04009
2179.1165,-0.04011
2178.15229,-0.04011
2177.18808,-0.04009
2176.22386,-0.04008
2175.25965,-0.04007
2174.29544,-0.04005
2173.33123,-0.04006
2172.36702,-0.04006
2171.40281,-0.04007
2170.4386,-0.04008
2169.47439,-0.04008
2168.51018,-0.04007
2167.54597,-0.04006
2166.58176,-0.04006
2165.61755,-0.04009
2164.65333,-0.04011
2163.68912,-0.04011
2162.72491,-0.04008
2161.7607,-0.04002
2160.79649,-0.03999
2159.83228,-0.04002
2158.86807,-0.04005
2157.90386,-0.04009
2156.93965,-0.04013
2155.97544,-0.0401
2155.01123,-0.04005
2154.04702,-0.04002
2153.0828,-0.04
2152.11859,-0.04
2151.15438,-0.04002
2150.19017,-0.04005
2149.22596,-0.04006
2148.26175,-0.04004
2147.29754,-0.04004
2146.33333,-0.04006
2145.36912,-0.04009
2144.40491,-0.0401
2143.4407,-0.04012
2142.47649,-0.04013
2141.51227,-0.04012
2140.54806,-0.04011
2139.58385,-0.04009
2138.61964,-0.04011
2137.65543,-0.04014
2136.69122,-0.04016
2135.72701,-0.04016
2134.7628,-0.04014
2133.79859,-0.04016
2132.83438,-0.0402
2131.87017,-0.04023
2130.90596,-0.04023
2129.94174,-0.04022
2128.97753,-0.04019
2128.01332,-0.04019
2127.04911,-0.04022
2126.0849,-0.04024
2125.12069,-0.04025
2124.15648,-0.04024
2123.19227,-0.04021
2122.22806,-0.04017
2121.26385,-0.04014
2120.29964,-0.04015
2119.33543,-0.04019
2118.37121,-0.04021
2117.407,-0.0402
2116.44279,-0.04019
2115.47858,-0.04017
2114.51437,-0.04016
2113.55016,-0.04018
2112.58595,-0.04019
2111.62174,-0.04021
2110.65753,-0.04023
2109.69332,-0.04023
2108.72911,-0.0402
2107.7649,-0.04016
2106.80068,-0.04016
2105.83647,-0.04019
2104.87226,-0.0402
2103.90805,-0.04019
2102.94384,-0.04018
2101.97963,-0.04016
2101.01542,-0.04015
2100.05121,-0.04015
2099.087,-0.04016
2098.12279,-0.04019
2097.15858,-0.04021
2096.19437,-0.04022
2095.23015,-0.04021
2094.26594,-0.04016
2093.30173,-0.04012
2092.33752,-0.04013
2091.37331,-0.04015
2090.4091,-0.04016
2089.44489,-0.04015
2088.48068,-0.04015
2087.51647,-0.04016
2086.55226,-0.04014
2085.58805,-0.04012
2084.62384,-0.04012
2083.65962,-0.04013
2082.69541,-0.04013
2081.7312,-0.04013
2080.76699,-0.04014
2079.80278,-0.04012
2078.83857,-0.04013
2077.87436,-0.04018
2076.91015,-0.04023
2075.94594,-0.04023
2074.98173,-0.04016
2074.01752,-0.0401
2073.05331,-0.04007
2072.08909,-0.04009
2071.12488,-0.04015
2070.16067,-0.0402
2069.19646,-0.04019
2068.23225,-0.04017
2067.26804,-0.04019
2066.30383,-0.04025
2065.33962,-0.04029
2064.37541,-0.04023
2063.4112,-0.04016
2062.44699,-0.04014
2061.48277,-0.04014
2060.51856,-0.04015
2059.55435,-0.04014
2058.59014,-0.04014
2057.62593,-0.04015
2056.66172,-0.04014
2055.69751,-0.04012
2054.7333,-0.0401
2053.76909,-0.04009
2052.80488,-0.04012
2051.84067,-0.04018
2050.87646,-0.04021
2049.91224,-0.04021
2048.94803,-0.04019
2047.98382,-0.04016
2047.01961,-0.04014
2046.0554,-0.04013
2045.09119,-0.04011
2044.12698,-0.04009
2043.16277,-0.04012
2042.19856,-0.04018
2041.23435,-0.0402
2040.27014,-0.04016
2039.30593,-0.04012
2038.34171,-0.0401
2037.3775,-0.0401
2036.41329,-0.0401
2035.44908,-0.04008
2034.48487,-0.04007
2033.52066,-0.04008
2032.55645,-0.0401
2031.59224,-0.0401
2030.62803,-0.04011
2029.66382,-0.04013
2028.69961,-0.04012
2027.7354,-0.04011
2026.77118,-0.04009
2025.80697,-0.04007
2024.84276,-0.04004
2023.87855,-0.04001
2022.91434,-0.03998
2021.95013,-0.03999
2020.98592,-0.04002
2020.02171,-0.04007
2019.0575,-0.04011
2018.09329,-0.04014
2017.12908,-0.04015
2016.16487,-0.04009
2015.20065,-0.04004
2014.23644,-0.04006
2013.27223,-0.04009
2012.30802,-0.0401
2011.34381,-0.0401
2010.3796,-0.04014
2009.41539,-0.0402
2008.45118,-0.04024
2007.48697,-0.04023
2006.52276,-0.0402
2005.55855,-0.04017
2004.59434,-0.04015
2003.63012,-0.04016
2002.66591,-0.04021
2001.7017,-0.04026
2000.73749,-0.04029
1999.77328,-0.04028
1998.80907,-0.04024
1997.84486,-0.04024
1996.88065,-0.04026
1995.91644,-0.04027
1994.95223,-0.04027
1993.98802,-0.04034
1993.02381,-0.04043
1992.05959,-0.04039
1991.09538,-0.04022
1990.13117,-0.04019
1989.16696,-0.04029
1988.20275,-0.04033
1987.23854,-0.04028
1986.27433,-0.04026
1985.31012,-0.04027
1984.34591,-0.04028
1983.3817,-0.04029
1982.41749,-0.04032
1981.45328,-0.04033
1980.48906,-0.04029
1979.52485,-0.04026
1978.56064,-0.04027
1977.59643,-0.04029
1976.63222,-0.0403
1975.66801,-0.0403
1974.7038,-0.0403
1973.73959,-0.04032
1972.77538,-0.04034
1971.81117,-0.04035
1970.84696,-0.04035
1969.88275,-0.04037
1968.91853,-0.04045
1967.95432,-0.04051
1966.99011,-0.04045
1966.0259,-0.04034
1965.06169,-0.04031
1964.09748,-0.04033
1963.13327,-0.04033
1962.16906,-0.04032
1961.20485,-0.04029
1960.24064,-0.04025
1959.27643,-0.04024
1958.31222,-0.04027
1957.348,-0.04032
1956.38379,-0.04037
1955.41958,-0.0404
1954.45537,-0.04039
1953.49116,-0.04035
1952.52695,-0.04033
1951.56274,-0.04032
1950.59853,-0.04031
1949.63432,-0.0403
1948.67011,-0.04029
1947.7059,-0.04029
1946.74169,-0.04033
1945.77747,-0.04034
1944.81326,-0.04033
1943.84905,-0.04033
1942.88484,-0.04027
1941.92063,-0.04013
1940.95642,-0.04009
1939.99221,-0.04016
1939.028,-0.04021
1938.06379,-0.04023
1937.09958,-0.04024
1936.13537,-0.04025
1935.17115,-0.04029
1934.20694,-0.04035
1933.24273,-0.04036
1932.27852,-0.04031
1931.31431,-0.04024
1930.3501,-0.04025
1929.38589,-0.04029
1928.42168,-0.0403
1927.45747,-0.04028
1926.49326,-0.04027
1925.52905,-0.0403
1924.56484,-0.04038
1923.60062,-0.0404
1922.63641,-0.04028
1921.6722,-0.04015
1920.70799,-0.04015
1919.74378,-0.04021
1918.77957,-0.04019
1917.81536,-0.04006
1916.85115,-0.03998
1915.88694,-0.04006
1914.92273,-0.04018
1913.95852,-0.04022
1912.99431,-0.04021
1912.03009,-0.04022
1911.06588,-0.04026
1910.10167,-0.0403
1909.13746,-0.04032
1908.17325,-0.04033
1907.20904,-0.04032
1906.24483,-0.04029
1905.28062,-0.04028
1904.31641,-0.04028
1903.3522,-0.04032
1902.38799,-0.04035
1901.42378,-0.04035
1900.45956,-0.04033
1899.49535,-0.04031
1898.53114,-0.04031
1897.56693,-0.04034
1896.60272,-0.04039
1895.63851,-0.04039
1894.6743,-0.04035
1893.71009,-0.0403
1892.74588,-0.04029
1891.78167,-0.04031
1890.81746,-0.0403
1889.85325,-0.04022
1888.88903,-0.04013
1887.92482,-0.04012
1886.96061,-0.04017
1885.9964,-0.04021
1885.03219,-0.0402
1884.06798,-0.04018
1883.10377,-0.04019
1882.13956,-0.04022
1881.17535,-0.04023
1880.21114,-0.04021
1879.24693,-0.04019
1878.28272,-0.04017
1877.3185,-0.04016
1876.35429,-0.04015
1875.39008,-0.04013
1874.42587,-0.04012
1873.46166,-0.04015
1872.49745,-0.0402
1871.53324,-0.04027
1870.56903,-0.04035
1869.60482,-0.04039
1868.64061,-0.04034
1867.6764,-0.04023
1866.71219,-0.04015
1865.74797,-0.04011
1864.78376,-0.04011
1863.81955,-0.04013
1862.85534,-0.04016
1861.89113,-0.04018
1860.92692,-0.04018
1859.96271,-0.04017
1858.9985,-0.04014
1858.03429,-0.0401
1857.07008,-0.04007
1856.10587,-0.04008
1855.14166,-0.04011
1854.17744,-0.04014
1853.21323,-0.04014
1852.24902,-0.04011
1851.28481,-0.0401
1850.3206,-0.04014
1849.35639,-0.04024
1848.39218,-0.04031
1847.42797,-0.04033
1846.46376,-0.04035
1845.49955,-0.0404
1844.53534,-0.04035
1843.57113,-0.04016
1842.60691,-0.03998
1841.6427,-0.03995
1840.67849,-0.04
1839.71428,-0.04007
1838.75007,-0.04013
1837.78586,-0.04015
1836.82165,-0.04011
1835.85744,-0.04003
1834.89323,-0.03996
1833.92902,-0.03994
1832.96481,-0.03998
1832.0006,-0.04008
1831.03638,-0.0402
1830.07217,-0.04022
1829.10796,-0.0401
1828.14375,-0.03996
1827.17954,-0.03992
1826.21533,-0.03995
1825.25112,-0.03996
1824.28691,-0.03991
1823.3227,-0.03988
1822.35849,-0.03988
1821.39428,-0.0399
1820.43007,-0.0399
1819.46585,-0.0399
1818.50164,-0.03988
1817.53743,-0.03984
1816.57322,-0.03981
1815.60901,-0.03982
1814.6448,-0.03985
1813.68059,-0.03987
1812.71638,-0.03984
1811.75217,-0.03977
1810.78796,-0.03969
1809.82375,-0.03964
1808.85953,-0.03963
1807.89532,-0.03964
1806.93111,-0.03963
1805.9669,-0.03959
1805.00269,-0.03957
1804.03848,-0.03958
1803.07427,-0.03962
1802.11006,-0.03969
1801.14585,-0.03973
1800.18164,-0.03968
1799.21743,-0.03952
1798.25322,-0.03935
1797.289,-0.03927
1796.32479,-0.03926
1795.36058,-0.03928
1794.39637,-0.03935
1793.43216,-0.03941
1792.46795,-0.03936
1791.50374,-0.03918
1790.53953,-0.039
1789.57532,-0.03889
1788.61111,-0.03885
1787.6469,-0.03886
1786.68269,-0.0389
1785.71847,-0.03891
1784.75426,-0.03885
1783.79005,-0.03875
1782.82584,-0.03867
1781.86163,-0.03859
1780.89742,-0.03848
1779.93321,-0.03834
1778.969,-0.03824
1778.00479,-0.03819
1777.04058,-0.03815
1776.07637,-0.03809
1775.11216,-0.03804
1774.14794,-0.03807
1773.18373,-0.03807
1772.21952,-0.03783
1771.25531,-0.03734
1770.2911,-0.03684
1769.32689,-0.03647
1768.36268,-0.0361
1767.39847,-0.03563
1766.43426,-0.03512
1765.47005,-0.03468
1764.50584,-0.03427
1763.54163,-0.03385
1762.57741,-0.0333
1761.6132,-0.03261
1760.64899,-0.03192
1759.68478,-0.03138
1758.72057,-0.03095
1757.75636,-0.03051
1756.79215,-0.02999
1755.82794,-0.02944
1754.86373,-0.02902
1753.89952,-0.02875
1752.93531,-0.02858
1751.9711,-0.02841
1751.00688,-0.02816
1750.04267,-0.02784
1749.07846,-0.02743
1748.11425,-0.02687
1747.15004,-0.02618
1746.18583,-0.02549
1745.22162,-0.02486
1744.25741,-0.02415
1743.2932,-0.02325
1742.32899,-0.02228
1741.36478,-0.02143
1740.40057,-0.02065
1739.43635,-0.0198
1738.47214,-0.01906
1737.50793,-0.01867
1736.54372,-0.01867
1735.57951,-0.01896
1734.6153,-0.01941
1733.65109,-0.01995
1732.68688,-0.0206
1731.72267,-0.02133
1730.75846,-0.02208
1729.79425,-0.02283
1728.83004,-0.02354
1727.86582,-0.02418
1726.90161,-0.02474
1725.9374,-0.0252
1724.97319,-0.02557
1724.00898,-0.02585
1723.04477,-0.02607
1722.08056,-0.02626
1721.11635,-0.02643
1720.15214,-0.02663
1719.18793,-0.02685
1718.22372,-0.02709
1717.25951,-0.02732
1716.29529,-0.0276
1715.33108,-0.02788
1714.36687,-0.02808
1713.40266,-0.02829
1712.43845,-0.02861
1711.47424,-0.02906
1710.51003,-0.02954
1709.54582,-0.02994
1708.58161,-0.03028
1707.6174,-0.0306
1706.65319,-0.03093
1705.68898,-0.03124
1704.72476,-0.03148
1703.76055,-0.03168
1702.79634,-0.03195
1701.83213,-0.0323
1700.86792,-0.03253
1699.90371,-0.03241
1698.9395,-0.03207
1697.97529,-0.03183
1697.01108,-0.03173
1696.04687,-0.03156
1695.08266,-0.03123
1694.11845,-0.03092
1693.15423,-0.03071
1692.19002,-0.03053
1691.22581,-0.03028
1690.2616,-0.02992
1689.29739,-0.02946
1688.33318,-0.02896
1687.36897,-0.02853
1686.40476,-0.0282
1685.44055,-0.0277
1684.47634,-0.0266
1683.51213,-0.02488
1682.54791,-0.02331
1681.5837,-0.02211
1680.61949,-0.021
1679.65528,-0.01978
1678.69107,-0.0186
1677.72686,-0.01754
1676.76265,-0.01647
1675.79844,-0.01515
1674.83423,-0.01357
1673.87002,-0.01209
1672.90581,-0.01089
1671.9416,-0.00975
1670.97738,-0.00837
1670.01317,-0.00656
1669.04896,-0.00425
1668.08475,-0.00174
1667.12054,0.00053
1666.15633,0.0026
1665.19212,0.0047
1664.22791,0.00706
1663.2637,0.00993
1662.29949,0.01332
1661.33528,0.01679
1660.37107,0.01998
1659.40685,0.02297
1658.44264,0.02592
1657.47843,0.02882
1656.51422,0.03157
1655.55001,0.03441
1654.5858,0.03818
1653.62159,0.04396
1652.65738,0.05122
1651.69317,0.05715
1650.72896,0.06105
1649.76475,0.06425
1648.80054,0.06843
1647.83632,0.07498
1646.87211,0.08428
1645.9079,0.0951
1644.94369,0.10549
1643.97948,0.11483
1643.01527,0.12399
1642.05106,0.13368
1641.08685,0.1436
1640.12264,0.15294
1639.15843,0.16101
1638.19422,0.16758
1637.23001,0.17262
1636.26579,0.17565
1635.30158,0.17574
1634.33737,0.17235
1633.37316,0.16582
1632.40895,0.15649
1631.44474,0.14475
1630.48053,0.13157
1629.51632,0.11808
1628.55211,0.10485
1627.5879,0.09224
1626.62369,0.08123
1625.65948,0.07242
1624.69526,0.06496
1623.73105,0.05757
1622.76684,0.05
1621.80263,0.04312
1620.83842,0.03743
1619.87421,0.03267
1618.91,0.02845
1617.94579,0.02439
1616.98158,0.02015
1616.01737,0.01592
1615.05316,0.01239
1614.08895,0.00972
1613.12473,0.00753
1612.16052,0.00551
1611.19631,0.00355
1610.2321,0.00165
1609.26789,-0.00023
1608.30368,-0.00206
1607.33947,-0.00384
1606.37526,-0.00554
1605.41105,-0.00714
1604.44684,-0.00862
1603.48263,-0.00996
1602.51842,-0.01111
1601.5542,-0.01205
1600.58999,-0.0128
1599.62578,-0.0134
1598.66157,-0.0139
1597.69736,-0.01433
1596.73315,-0.01469
1595.76894,-0.01488
1594.80473,-0.01486
1593.84052,-0.01463
1592.87631,-0.01428
1591.9121,-0.01384
1590.94789,-0.0133
1589.98367,-0.01264
1589.01946,-0.01181
1588.05525,-0.01081
1587.09104,-0.00966
1586.12683,-0.00834
1585.16262,-0.00682
1584.19841,-0.00506
1583.2342,-0.00304
1582.26999,-0.00072
1581.30578,0.00186
1580.34157,0.00461
1579.37736,0.00746
1578.41314,0.0105
1577.44893,0.01426
1576.48472,0.01949
1575.52051,0.02586
1574.5563,0.03175
1573.59209,0.03652
1572.62788,0.04064
1571.66367,0.04463
1570.69946,0.0489
1569.73525,0.05372
1568.77104,0.0585
1567.80683,0.06209
1566.84261,0.06447
1565.8784,0.06637
1564.91419,0.06823
1563.94998,0.06993
1562.98577,0.07118
1562.02156,0.07202
1561.05735,0.07282
1560.09314,0.07399
1559.12893,0.07556
1558.16472,0.07664
1557.20051,0.07638
1556.2363,0.07542
1555.27208,0.07446
1554.30787,0.07366
1553.34366,0.0729
1552.37945,0.0721
1551.41524,0.07123
1550.45103,0.0702
1549.48682,0.06897
1548.52261,0.06766
1547.5584,0.06641
1546.59419,0.06518
1545.62998,0.06385
1544.66576,0.06233
1543.70155,0.06063
1542.73734,0.05873
1541.77313,0.05655
1540.80892,0.05405
1539.84471,0.05103
1538.8805,0.04752
1537.91629,0.04431
1536.95208,0.04181
1535.98787,0.03969
1535.02366,0.03737
1534.05945,0.03447
1533.09523,0.03101
1532.13102,0.02755
1531.16681,0.02455
1530.2026,0.02198
1529.23839,0.01961
1528.27418,0.01726
1527.30997,0.01491
1526.34576,0.01257
1525.38155,0.01021
1524.41734,0.00796
1523.45313,0.00594
1522.48892,0.00407
1521.5247,0.00221
1520.56049,0.00036
1519.59628,-0.00134
1518.63207,-0.00282
1517.66786,-0.00422
1516.70365,-0.00566
1515.73944,-0.0071
1514.77523,-0.00846
1513.81102,-0.00978
1512.84681,-0.01106
1511.8826,-0.01225
1510.91839,-0.01327
1509.95417,-0.01411
1508.98996,-0.01484
1508.02575,-0.01554
1507.06154,-0.01623
1506.09733,-0.01685
1505.13312,-0.01744
1504.16891,-0.01802
1503.2047,-0.0186
1502.24049,-0.01916
1501.27628,-0.01967
1500.31207,-0.02013
1499.34786,-0.02055
1498.38364,-0.02091
1497.41943,-0.02121
1496.45522,-0.02143
1495.49101,-0.02156
1494.5268,-0.02169
1493.56259,-0.02184
1492.59838,-0.02199
1491.63417,-0.02199
1490.66996,-0.02173
1489.70575,-0.02131
1488.74154,-0.02103
1487.77733,-0.02094
1486.81311,-0.02081
1485.8489,-0.02052
1484.88469,-0.02008
1483.92048,-0.01955
1482.95627,-0.01888
1481.99206,-0.01796
1481.02785,-0.01674
1480.06364,-0.01533
1479.09943,-0.01391
1478.13522,-0.01251
1477.17101,-0.01096
1476.2068,-0.00903
1475.24258,-0.00671
1474.27837,-0.00377
1473.31416,0.00061
1472.34995,0.00689
1471.38574,0.01401
1470.42153,0.02043
1469.45732,0.02583
1468.49311,0.03049
1467.5289,0.03433
1466.56469,0.03705
1465.60048,0.03846
1464.63627,0.03856
1463.67205,0.03736
1462.70784,0.03493
1461.74363,0.03147
1460.77942,0.02743
1459.81521,0.02341
1458.851,0.01988
1457.88679,0.01704
1456.92258,0.01474
1455.95837,0.01273
1454.99416,0.01095
1454.02995,0.00938
1453.06574,0.0079
1452.10152,0.00658
1451.13731,0.00558
1450.1731,0.00501
1449.20889,0.00486
1448.24468,0.00512
1447.28047,0.0057
1446.31626,0.00629
1445.35205,0.0067
1444.38784,0.00696
1443.42363,0.00717
1442.45942,0.00742
1441.49521,0.00773
1440.53099,0.00808
1439.56678,0.0084
1438.60257,0.0086
1437.63836,0.00867
1436.67415,0.00865
1435.70994,0.0085
1434.74573,0.00809
1433.78152,0.00732
1432.81731,0.0062
1431.8531,0.00474
1430.88889,0.003
1429.92468,0.00113
1428.96046,-0.00063
1427.99625,-0.00214
1427.03204,-0.00349
1426.06783,-0.0047
1425.10362,-0.00576
1424.13941,-0.00661
1423.1752,-0.0072
1422.21099,-0.00762
1421.24678,-0.00797
1420.28257,-0.00829
1419.31836,-0.0086
1418.35414,-0.00902
1417.38993,-0.00967
1416.42572,-0.01055
1415.46151,-0.01156
1414.4973,-0.01263
1413.53309,-0.01373
1412.56888,-0.01484
1411.60467,-0.01585
1410.64046,-0.01674
1409.67625,-0.01752
1408.71204,-0.01821
1407.74783,-0.0188
1406.78361,-0.01928
1405.8194,-0.01965
1404.85519,-0.01994
1403.89098,-0.02017
1402.92677,-0.02033
1401.96256,-0.02044
1400.99835,-0.02049
1400.03414,-0.02045
1399.06993,-0.02026
1398.10572,-0.01999
1397.14151,-0.01982
1396.1773,-0.01967
1395.21308,-0.01935
1394.24887,-0.01885
1393.28466,-0.01836
1392.32045,-0.01799
1391.35624,-0.01764
1390.39203,-0.01728
1389.42782,-0.01691
1388.46361,-0.01648
1387.4994,-0.01586
1386.53519,-0.01502
1385.57098,-0.01418
1384.60677,-0.01345
1383.64255,-0.01277
1382.67834,-0.01208
1381.71413,-0.01135
1380.74992,-0.01059
1379.78571,-0.00978
1378.8215,-0.00892
1377.85729,-0.00802
1376.89308,-0.00713
1375.92887,-0.00624
1374.96466,-0.00528
1374.00045,-0.0042
1373.03624,-0.00306
1372.07202,-0.00204
1371.10781,-0.00127
1370.1436,-0.00075
1369.17939,-0.00041
1368.21518,-0.00022
1367.25097,-0.00024
1366.28676,-0.00052
1365.32255,-0.00103
1364.35834,-0.0017
1363.39413,-0.00235
1362.42992,-0.00281
1361.46571,-0.00328
1360.50149,-0.004
1359.53728,-0.00489
1358.57307,-0.0057
1357.60886,-0.00637
1356.64465,-0.00699
1355.68044,-0.00764
1354.71623,-0.00829
1353.75202,-0.00887
1352.78781,-0.00937
1351.8236,-0.0098
1350.85939,-0.01015
1349.89518,-0.0104
1348.93096,-0.0105
1347.96675,-0.0105
1347.00254,-0.01044
1346.03833,-0.01034
1345.07412,-0.0102
1344.10991,-0.01007
1343.1457,-0.00999
1342.18149,-0.01008
1341.21728,-0.01037
1340.25307,-0.0107
1339.28886,-0.01094
1338.32465,-0.01118
1337.36043,-0.01151
1336.39622,-0.01196
1335.43201,-0.01254
1334.4678,-0.01313
1333.50359,-0.01362
1332.53938,-0.01399
1331.57517,-0.01426
1330.61096,-0.01448
1329.64675,-0.01459
1328.68254,-0.01455
1327.71833,-0.01443
1326.75412,-0.01434
1325.7899,-0.01432
1324.82569,-0.01435
1323.86148,-0.01449
1322.89727,-0.01479
1321.93306,-0.01517
1320.96885,-0.01554
1320.00464,-0.01589
1319.04043,-0.01618
1318.07622,-0.01633
1317.11201,-0.01637
1316.1478,-0.01637
1315.18359,-0.01637
1314.21937,-0.01631
1313.25516,-0.01608
1312.29095,-0.01563
1311.32674,-0.01512
1310.36253,-0.01465
1309.39832,-0.01421
1308.43411,-0.01379
1307.4699,-0.01345
1306.50569,-0.01319
1305.54148,-0.01293
1304.57727,-0.01269
1303.61306,-0.01255
1302.64884,-0.0125
1301.68463,-0.01242
1300.72042,-0.0122
1299.75621,-0.0118
1298.792,-0.01129
1297.82779,-0.01073
1296.86358,-0.01018
1295.89937,-0.00964
1294.93516,-0.00913
1293.97095,-0.00865
1293.00674,-0.00814
1292.04252,-0.00748
1291.07831,-0.00661
1290.1141,-0.00567
1289.14989,-0.00491
1288.18568,-0.00457
1287.22147,-0.00478
1286.25726,-0.00551
1285.29305,-0.00658
1284.32884,-0.00763
1283.36463,-0.00835
1282.40042,-0.00863
1281.43621,-0.00848
1280.47199,-0.00798
1279.50778,-0.00718
1278.54357,-0.00616
1277.57936,-0.00495
1276.61515,-0.00365
1275.65094,-0.00232
1274.68673,-0.00106
1273.72252,0.00003
1272.75831,0.001
1271.7941,0.00204
1270.82989,0.00314
1269.86568,0.00402
1268.90146,0.0044
1267.93725,0.00421
1266.97304,0.00353
1266.00883,0.00248
1265.04462,0.00122
1264.08041,-0.00001
1263.1162,-0.00105
1262.15199,-0.00188
1261.18778,-0.00251
1260.22357,-0.00289
1259.25936,-0.00296
1258.29515,-0.00282
1257.33093,-0.0026
1256.36672,-0.00227
1255.40251,-0.00175
1254.4383,-0.00102
1253.47409,-0.0001
1252.50988,0.00094
1251.54567,0.00187
1250.58146,0.00241
1249.61725,0.00246
1248.65304,0.00222
1247.68883,0.00208
1246.72462,0.00225
1245.7604,0.00269
1244.79619,0.0032
1243.83198,0.00344
1242.86777,0.00311
1241.90356,0.00223
1240.93935,0.00101
1239.97514,-0.0003
1239.01093,-0.0015
1238.04672,-0.00257
1237.08251,-0.00355
1236.1183,-0.00444
1235.15409,-0.00521
1234.18987,-0.00584
1233.22566,-0.00635
1232.26145,-0.00681
1231.29724,-0.00724
1230.33303,-0.0076
1229.36882,-0.00785
1228.40461,-0.00789
1227.4404,-0.00769
1226.47619,-0.00726
1225.51198,-0.00667
1224.54777,-0.00605
1223.58356,-0.00557
1222.61934,-0.00538
1221.65513,-0.00553
1220.69092,-0.00589
1219.72671,-0.00644
1218.7625,-0.00728
1217.79829,-0.00838
1216.83408,-0.00965
1215.86987,-0.01093
1214.90566,-0.01208
1213.94145,-0.01304
1212.97724,-0.0139
1212.01303,-0.01464
1211.04881,-0.0153
1210.0846,-0.01588
1209.12039,-0.01642
1208.15618,-0.01691
1207.19197,-0.01733
1206.22776,-0.01768
1205.26355,-0.01802
1204.29934,-0.0183
1203.33513,-0.01846
1202.37092,-0.01849
1201.40671,-0.0184
1200.4425,-0.0182
1199.47828,-0.01784
1198.51407,-0.01724
1197.54986,-0.0164
1196.58565,-0.01537
1195.62144,-0.01427
1194.65723,-0.01332
1193.69302,-0.01263
1192.72881,-0.01221
1191.7646,-0.01219
1190.80039,-0.01264
1189.83618,-0.0134
1188.87197,-0.01422
1187.90775,-0.0149
1186.94354,-0.01547
1185.97933,-0.01593
1185.01512,-0.01624
1184.05091,-0.0164
1183.0867,-0.01641
1182.12249,-0.01631
1181.15828,-0.01616
1180.19407,-0.01603
1179.22986,-0.0159
1178.26565,-0.0158
1177.30144,-0.01572
1176.33722,-0.01559
1175.37301,-0.0155
1174.4088,-0.01551
1173.44459,-0.01556
1172.48038,-0.01563
1171.51617,-0.01569
1170.55196,-0.01568
1169.58775,-0.01551
1168.62354,-0.0151
1167.65933,-0.01441
1166.69512,-0.01343
1165.73091,-0.01207
1164.76669,-0.01035
1163.80248,-0.00835
1162.83827,-0.00626
1161.87406,-0.00442
1160.90985,-0.00325
1159.94564,-0.00301
1158.98143,-0.00382
1158.01722,-0.00562
1157.05301,-0.00815
1156.0888,-0.01097
1155.12459,-0.01362
1154.16037,-0.01586
1153.19616,-0.01777
1152.23195,-0.01946
1151.26774,-0.02097
1150.30353,-0.02221
1149.33932,-0.02317
1148.37511,-0.02399
1147.4109,-0.02476
1146.44669,-0.02542
1145.48248,-0.02593
1144.51827,-0.02633
1143.55406,-0.02667
1142.58984,-0.02707
1141.62563,-0.0275
1140.66142,-0.02788
1139.69721,-0.02826
1138.733,-0.02853
1137.76879,-0.02855
1136.80458,-0.02848
1135.84037,-0.02843
1134.87616,-0.02832
1133.91195,-0.02815
1132.94774,-0.02781
1131.98353,-0.02709
1131.01931,-0.02605
1130.0551,-0.02492
1129.09089,-0.02358
1128.12668,-0.02189
1127.16247,-0.02004
1126.19826,-0.01823
1125.23405,-0.01636
1124.26984,-0.01442
1123.30563,-0.01263
1122.34142,-0.01131
1121.37721,-0.01059
1120.413,-0.01034
1119.44878,-0.01041
1118.48457,-0.01068
1117.52036,-0.01099
1116.55615,-0.01122
1115.59194,-0.01138
1114.62773,-0.01149
1113.66352,-0.01162
1112.69931,-0.01187
1111.7351,-0.01217
1110.77089,-0.01239
1109.80668,-0.01264
1108.84247,-0.01313
1107.87825,-0.01379
1106.91404,-0.01449
1105.94983,-0.01532
1104.98562,-0.01635
1104.02141,-0.01738
1103.0572,-0.01834
1102.09299,-0.01936
1101.12878,-0.02044
1100.16457,-0.02142
1099.20036,-0.02224
1098.23615,-0.02304
1097.27194,-0.0239
1096.30772,-0.02474
1095.34351,-0.02544
1094.3793,-0.02604
1093.41509,-0.02658
1092.45088,-0.02709
1091.48667,-0.02755
1090.52246,-0.02787
1089.55825,-0.02809
1088.59404,-0.02835
1087.62983,-0.02864
1086.66562,-0.02883
1085.70141,-0.02892
1084.73719,-0.02902
1083.77298,-0.02919
1082.80877,-0.02941
1081.84456,-0.02963
1080.88035,-0.02976
1079.91614,-0.02977
1078.95193,-0.02979
1077.98772,-0.02982
1077.02351,-0.02983
1076.0593,-0.02975
1075.09509,-0.02952
1074.13088,-0.02923
1073.16666,-0.02897
1072.20245,-0.02866
1071.23824,-0.02827
1070.27403,-0.02782
1069.30982,-0.02729
1068.34561,-0.02672
1067.3814,-0.02621
1066.41719,-0.02586
1065.45298,-0.02566
1064.48877,-0.02558
1063.52456,-0.02571
1062.56035,-0.02612
1061.59613,-0.02671
1060.63192,-0.02737
1059.66771,-0.02798
1058.7035,-0.02849
1057.73929,-0.02896
1056.77508,-0.02946
1055.81087,-0.0299
1054.84666,-0.03031
1053.88245,-0.0307
1052.91824,-0.031
1051.95403,-0.03122
1050.98982,-0.03142
1050.0256,-0.03158
1049.06139,-0.03167
1048.09718,-0.03175
1047.13297,-0.03184
1046.16876,-0.03199
1045.20455,-0.03211
1044.24034,-0.03219
1043.27613,-0.03224
1042.31192,-0.03223
1041.34771,-0.03224
1040.3835,-0.0324
1039.41929,-0.03264
1038.45507,-0.03281
1037.49086,-0.03287
1036.52665,-0.03292
1035.56244,-0.03298
1034.59823,-0.03298
1033.63402,-0.03284
1032.66981,-0.03264
1031.7056,-0.03228
1030.74139,-0.03174
1029.77718,-0.0312
1028.81297,-0.03081
1027.84875,-0.03064
1026.88454,-0.03075
1025.92033,-0.03104
1024.95612,-0.03143
1023.99191,-0.03187
1023.0277,-0.03226
1022.06349,-0.03257
1021.09928,-0.0328
1020.13507,-0.03287
1019.17086,-0.03277
1018.20665,-0.03262
1017.24244,-0.0325
1016.27822,-0.03238
1015.31401,-0.0322
1014.3498,-0.03203
1013.38559,-0.03193
1012.42138,-0.03185
1011.45717,-0.03188
1010.49296,-0.03211
1009.52875,-0.0324
1008.56454,-0.03262
1007.60033,-0.03273
1006.63612,-0.03287
1005.67191,-0.03314
1004.70769,-0.03343
1003.74348,-0.03366
1002.77927,-0.03389
1001.81506,-0.03406
1000.85085,-0.03411
999.88664,-0.03407
998.92243,-0.03398
997.95822,-0.0339
996.99401,-0.0339
996.0298,-0.03388
995.06559,-0.03378
994.10138,-0.03368
993.13716,-0.03351
992.17295,-0.03328
991.20874,-0.03314
990.24453,-0.03313
989.28032,-0.0331
988.31611,-0.03294
987.3519,-0.03271
986.38769,-0.03256
985.42348,-0.03249
984.45927,-0.03239
983.49506,-0.03222
982.53085,-0.03204
981.56663,-0.03192
980.60242,-0.03192
979.63821,-0.03203
978.674,-0.03231
977.70979,-0.03268
976.74558,-0.03293
975.78137,-0.03306
974.81716,-0.03319
973.85295,-0.03329
972.88874,-0.03333
971.92453,-0.0334
970.96032,-0.03357
969.9961,-0.03384
969.03189,-0.03405
968.06768,-0.03409
967.10347,-0.03409
966.13926,-0.03408
965.17505,-0.03399
964.21084,-0.03386
963.24663,-0.03375
962.28242,-0.03374
961.31821,-0.03379
960.354,-0.03372
959.38979,-0.03351
958.42557,-0.03326
957.46136,-0.03297
956.49715,-0.03261
955.53294,-0.03222
954.56873,-0.03177
953.60452,-0.03134
952.64031,-0.03087
951.6761,-0.03028
950.71189,-0.02961
949.74768,-0.02881
948.78347,-0.02798
947.81926,-0.0274
946.85504,-0.02709
945.89083,-0.02702
944.92662,-0.02736
943.96241,-0.0281
942.9982,-0.02896
942.03399,-0.02975
941.06978,-0.03038
940.10557,-0.03095
939.14136,-0.03162
938.17715,-0.03223
937.21294,-0.03258
936.24873,-0.03277
935.28451,-0.03304
934.3203,-0.03346
933.35609,-0.03383
932.39188,-0.03418
931.42767,-0.03467
930.46346,-0.03509
929.49925,-0.03525
928.53504,-0.03532
927.57083,-0.03542
926.60662,-0.03549
925.64241,-0.03555
924.6782,-0.03563
923.71398,-0.03569
922.74977,-0.03581
921.78556,-0.03596
920.82135,-0.036
919.85714,-0.03588
918.89293,-0.0357
917.92872,-0.03562
916.96451,-0.03569
916.0003,-0.03581
915.03609,-0.0359
914.07188,-0.03592
913.10767,-0.03587
912.14345,-0.03576
911.17924,-0.03567
910.21503,-0.03558
909.25082,-0.03544
908.28661,-0.03527
907.3224,-0.03521
906.35819,-0.03526
905.39398,-0.03526
904.42977,-0.0352
903.46556,-0.03511
902.50135,-0.03494
901.53713,-0.03479
900.57292,-0.03484
899.60871,-0.03499
898.6445,-0.03511
897.68029,-0.0352
896.71608,-0.03523
895.75187,-0.03521
894.78766,-0.03525
893.82345,-0.0353
892.85924,-0.03536
891.89503,-0.03554
890.93082,-0.03571
889.9666,-0.03557
889.00239,-0.03528
888.03818,-0.03513
887.07397,-0.0351
886.10976,-0.03508
885.14555,-0.03515
884.18134,-0.03527
883.21713,-0.03528
882.25292,-0.03522
881.28871,-0.03519
880.3245,-0.0352
879.36029,-0.03524
878.39607,-0.03526
877.43186,-0.03521
876.46765,-0.03514
875.50344,-0.03509
874.53923,-0.03502
873.57502,-0.03482
872.61081,-0.03451
871.6466,-0.03429
870.68239,-0.03428
869.71818,-0.03429
868.75397,-0.03419
867.78976,-0.03406
866.82554,-0.03389
865.86133,-0.03367
864.89712,-0.0335
863.93291,-0.03329
862.9687,-0.03303
862.00449,-0.0328
861.04028,-0.03272
860.07607,-0.03283
859.11186,-0.03297
858.14765,-0.03304
857.18344,-0.03309
856.21923,-0.03314
855.25501,-0.03315
854.2908,-0.03319
853.32659,-0.03328
852.36238,-0.03334
851.39817,-0.03345
850.43396,-0.03367
849.46975,-0.03394
848.50554,-0.03424
847.54133,-0.03443
846.57712,-0.03442
845.61291,-0.03434
844.6487,-0.03427
843.68448,-0.03422
842.72027,-0.03419
841.75606,-0.03423
840.79185,-0.03429
839.82764,-0.03421
838.86343,-0.03399
837.89922,-0.0338
836.93501,-0.03375
835.9708,-0.03378
835.00659,-0.03375
834.04238,-0.03358
833.07817,-0.03333
832.11395,-0.03313
831.14974,-0.033
830.18553,-0.0329
829.22132,-0.03271
828.25711,-0.03242
827.2929,-0.03213
826.32869,-0.03193
825.36448,-0.03179
824.40027,-0.03164
823.43606,-0.03143
822.47185,-0.03116
821.50764,-0.0309
820.54342,-0.03061
819.57921,-0.03029
818.615,-0.03004
817.65079,-0.02982
816.68658,-0.02954
815.72237,-0.02923
814.75816,-0.02895
813.79395,-0.02875
812.82974,-0.02861
811.86553,-0.02842
810.90132,-0.02819
809.93711,-0.02797
808.97289,-0.02777
808.00868,-0.02757
807.04447,-0.02742
806.08026,-0.02735
805.11605,-0.0273
804.15184,-0.02708
803.18763,-0.02669
802.22342,-0.02635
801.25921,-0.0262
800.295,-0.02612
799.33079,-0.02594
798.36658,-0.02559
797.40236,-0.02514
796.43815,-0.02469
795.47394,-0.02429
794.50973,-0.02393
793.54552,-0.02357
792.58131,-0.02318
791.6171,-0.02275
790.65289,-0.02229
789.68868,-0.02181
788.72447,-0.02138
787.76026,-0.02101
786.79605,-0.02062
785.83183,-0.02017
784.86762,-0.01964
783.90341,-0.01906
782.9392,-0.01856
781.97499,-0.01807
781.01078,-0.01753
780.04657,-0.01699
779.08236,-0.01648
778.11815,-0.01594
777.15394,-0.01539
776.18973,-0.01486
775.22551,-0.01442
774.2613,-0.01413
773.29709,-0.01395
772.33288,-0.01378
771.36867,-0.01349
770.40446,-0.01309
769.44025,-0.01268
768.47604,-0.01229
767.51183,-0.01194
766.54762,-0.01164
765.58341,-0.01124
764.6192,-0.01063
763.65498,-0.0101
762.69077,-0.00978
761.72656,-0.00948
760.76235,-0.00913
759.79814,-0.00878
758.83393,-0.00847
757.86972,-0.00826
756.90551,-0.00809
755.9413,-0.00791
754.97709,-0.00778
754.01288,-0.00761
753.04867,-0.00731
752.08445,-0.00682
751.12024,-0.00615
750.15603,-0.00535
749.19182,-0.00441
748.22761,-0.0032
747.2634,-0.00178
746.29919,-0.00036
745.33498,0.00094
744.37077,0.00215
743.40656,0.00331
742.44235,0.00442
741.47814,0.00537
740.51392,0.00614
739.54971,0.00688
738.5855,0.00779
737.62129,0.009
736.65708,0.01047
735.69287,0.01197
734.72866,0.01347
733.76445,0.01507
732.80024,0.01681
731.83603,0.01865
730.87182,0.02064
729.90761,0.02308
728.94339,0.02621
727.97918,0.02984
727.01497,0.03375
726.05076,0.03772
725.08655,0.04151
724.12234,0.04506
723.15813,0.04821
722.19392,0.05033
721.22971,0.05095
720.2655,0.0501
719.30129,0.0482
718.33708,0.04585
717.37286,0.04347
716.40865,0.04131
715.44444,0.0396
714.48023,0.03838
713.51602,0.03749
712.55181,0.03678
711.5876,0.03621
710.62339,0.0358
709.65918,0.03546
708.69497,0.03509
707.73076,0.03467
706.76655,0.03426
705.80233,0.03383
704.83812,0.03333
703.87391,0.03273
702.9097,0.03201
701.94549,0.03123
700.98128,0.03048
700.01707,0.02986
699.05286,0.02932
698.08865,0.02877
697.12444,0.02814
696.16023,0.02743
695.19602,0.02669
694.2318,0.02596
693.26759,0.02527
692.30338,0.02464
691.33917,0.02409
690.37496,0.02355
689.41075,0.02299
688.44654,0.02235
687.48233,0.02162
686.51812,0.02085
685.55391,0.02014
684.5897,0.01948
683.62549,0.0188
682.66127,0.01806
681.69706,0.01734
680.73285,0.0167
679.76864,0.01615
678.80443,0.01562
677.84022,0.01505
676.87601,0.01446
675.9118,0.01387
674.94759,0.01329
673.98338,0.01274
673.01917,0.01222
672.05496,0.01177
671.09074,0.01153
670.12653,0.01167
669.16232,0.01219
668.19811,0.01261
667.2339,0.01221
666.26969,0.01117
665.30548,0.01031
664.34127,0.00994
663.37706,0.00986
662.41285,0.0098
661.44864,0.00963
660.48443,0.0093
659.52021,0.00891
658.556,0.00863
657.59179,0.0085
656.62758,0.0084
655.66337,0.00826
654.69916,0.0082
653.73495,0.00832
652.77074,0.00864
651.80653,0.00906
650.84232,0.0095
649.87811,0.00988
